WAVELENGTH	NORM_INTENSITY
194.11	0.001973066
194.31	-0.003322214
194.52	0.000151772
194.72	-0.000590231
194.92	0.00305233
195.12	0.001332235
195.33	0.000556503
195.53	-0.002141641
195.73	-0.000522774
195.93	0.000691418
196.13	0.000893776
196.34	0.001062419
196.54	-0.000758875
196.74	0.000590231
196.94	-0.000455317
197.15	0.000522774
197.35	0.002209181
197.55	-0.001365964
197.75	-0.001467205
197.96	8.4319E-05
198.16	0.000927505
198.36	-8.4319E-05
198.56	-0.000320416
198.76	0.002175411
198.97	0.00119732
199.17	-0.001433435
199.37	0.000691418
199.57	0.000151772
199.78	0.000725146
199.98	-0.001433435
200.18	-0.000860047
200.39	-0.000455317
200.59	0.000657689
200.79	-0.000387859
200.99	-0.000860047
201.2	-0.002849985
201.4	0.001669549
201.6	-0.000860047
201.8	0.000151772
202.01	-0.002108009
202.21	-0.000860047
202.41	-0.001500837
202.62	-0.000657689
202.82	-0.000725146
203.02	-0.000590231
203.22	-0.00163578
203.43	-0.000252958
203.63	-0.001399665
203.83	-0.000286687
204.04	-0.001264778
204.24	-5.05917E-05
204.44	-0.00079259
204.64	0.002310353
204.85	-0.003086099
205.05	0.001231049
205.25	-0.000556503
205.46	-0.000286687
205.66	1.68643E-05
205.86	0.000758875
206.07	0.000455317
206.27	0.002681273
206.47	-0.001905664
206.68	-0.001804354
206.88	-5.05917E-05
207.08	0.00079259
207.29	0.000118046
207.49	-0.001298506
207.69	-0.00119732
207.89	-0.000489045
208.1	-0.001973066
208.3	-0.000320416
208.5	-0.001838124
208.71	0.000590231
208.91	-0.000151772
209.12	0.000691418
209.32	-0.001129877
209.52	-0.000725146
209.73	-0.000118046
209.93	0.000961233
210.13	0.000320416
210.34	-0.000118046
210.54	-0.002276583
210.74	0.001028691
210.95	-0.002849985
211.15	-0.001500837
211.35	-0.001129877
211.56	0.001467205
211.76	-0.002512698
211.96	-0.000590231
212.17	-0.002546468
212.37	-0.001736952
212.58	8.4319E-05
212.78	-0.001264778
212.98	-0.002377756
213.19	-0.00062396
213.39	-0.001129877
213.59	0.001433435
213.8	-0.000860047
214	-0.000893776
214.21	0.000387859
214.41	-0.000590231
214.61	-0.00062396
214.82	0.001298506
215.02	-0.001264778
215.23	0.002512698
215.43	0.000927505
215.63	-0.00079259
215.84	0.00021923
216.04	0.000826319
216.25	-0.001703182
216.45	-0.000590231
216.65	-0.00062396
216.86	0.000354144
217.06	0.000758875
217.27	-0.001028691
217.47	-0.002141641
217.67	0.000758875
217.88	-0.00160201
218.08	8.4319E-05
218.29	-0.001467205
218.49	-0.001365964
218.7	5.05917E-05
218.9	0.002377756
219.1	-0.000590231
219.31	-0.000826319
219.51	5.05917E-05
219.72	0.000118046
219.92	-0.001669549
220.13	0.001905664
220.33	0.000387859
220.53	-0.00119732
220.74	-0.001264778
220.94	-0.000826319
221.15	-0.002276583
221.35	0.000252958
221.56	-0.001939297
221.76	5.05917E-05
221.97	-0.002276583
222.17	0.00119732
222.38	-0.001062419
222.58	0.000320416
222.78	0.000826319
222.99	0.000691418
223.19	-0.000522774
223.4	-0.002445296
223.6	-0.002917387
223.81	0.001467205
224.01	-0.000657689
224.22	-0.000118046
224.42	0.000556503
224.63	-0.00163578
224.83	-0.002276583
225.04	8.4319E-05
225.24	-0.001973066
225.45	0.00021923
225.65	-0.000893776
225.86	-0.000252958
226.06	-0.001871894
226.27	0.001703182
226.47	-0.001669549
226.68	0.001871894
226.88	-0.000421588
227.09	-0.000758875
227.29	-0.002310353
227.5	-0.001939297
227.7	8.4319E-05
227.91	0.002074239
228.11	-0.001534607
228.32	-0.002512698
228.52	-0.0025801
228.73	0.000455317
228.93	-0.0025801
229.14	0.001736952
229.34	-0.000252958
229.55	0.000826319
229.75	-0.002310353
229.96	-8.4319E-05
230.16	-0.002276583
230.37	-0.00021923
230.57	-0.001062419
230.78	0.001129877
230.98	-0.002478928
231.19	0.000185501
231.39	0.00062396
231.6	-0.00079259
231.81	-0.001062419
232.01	-0.000826319
232.22	0.000893776
232.42	-0.00021923
232.63	0.000455317
232.83	0.002141641
233.04	0.000151772
233.24	0.000151772
233.45	0.000387859
233.65	-0.000421588
233.86	-0.002849985
234.07	-0.000893776
234.27	-0.000893776
234.48	-0.000286687
234.68	0.000118046
234.89	0.001568377
235.09	0.000893776
235.3	0.001028691
235.51	-0.001939297
235.71	-0.00119732
235.92	-0.000118046
236.12	-0.00021923
236.33	-0.001062419
236.53	-0.002006836
236.74	-0.00119732
236.95	0.00062396
237.15	0.000489045
237.36	-0.00062396
237.56	0.000556503
237.77	-0.000725146
237.98	-0.000522774
238.18	-0.000252958
238.39	-0.000556503
238.59	-0.000455317
238.8	-0.001332235
239.01	0.002074239
239.21	-8.4319E-05
239.42	0.000421588
239.62	-8.4319E-05
239.83	0.000590231
240.04	0.000893776
240.24	0.002546468
240.45	0.000860047
240.65	5.05917E-05
240.86	-0.000151772
241.07	0.001264778
241.27	-0.001500837
241.48	-0.000252958
241.69	-0.001298506
241.89	0.000185501
242.1	-0.001264778
242.3	-0.000354144
242.51	0.001264778
242.72	-1.68643E-05
242.92	-0.002074239
243.13	0.000927505
243.34	-0.001703182
243.54	0.000286687
243.75	0.000455317
243.96	-0.000927505
244.16	-0.002141641
244.37	0.000421588
244.58	0.001973066
244.78	0.002917387
244.99	-0.001062419
245.19	0.001163592
245.4	0.000657689
245.61	-0.001062419
245.81	-0.00160201
246.02	-0.000489045
246.23	0.000691418
246.43	0.000421588
246.64	-0.000455317
246.85	-0.001365964
247.05	-0.002917387
247.26	0.000556503
247.47	-0.001028691
247.67	-0.000522774
247.88	-0.000489045
248.09	0.000691418
248.3	0.000421588
248.5	0.000455317
248.71	-0.001264778
248.92	0.002883755
249.12	-0.001534607
249.33	-0.001231049
249.54	-0.001096148
249.74	0.00079259
249.95	0.000556503
250.16	0.00163578
250.36	-0.001568377
250.57	0.000826319
250.78	-0.001264778
250.99	0.002984927
251.19	-0.001163592
251.4	-5.05917E-05
251.61	-0.001365964
251.81	0.001433435
252.02	-0.000860047
252.23	-0.000691418
252.44	0.00021923
252.64	0.000556503
252.85	-0.001264778
253.06	0.000151772
253.26	0.00264764
253.47	0.000758875
253.68	-0.000387859
253.89	0.001703182
254.09	-0.000826319
254.3	0.001905664
254.51	-0.001939297
254.72	0.000657689
254.92	-0.000657689
255.13	-0.000590231
255.34	0.000590231
255.54	0.00062396
255.75	-0.001703182
255.96	0.001096148
256.17	0.000691418
256.37	0.000657689
256.58	-0.001332235
256.79	-0.000893776
257	-0.001332235
257.2	-0.001264778
257.41	-0.002849985
257.62	-0.000556503
257.83	-0.002006836
258.04	-0.000927505
258.24	-0.002883755
258.45	0.001838124
258.66	-0.001703182
258.87	-5.05917E-05
259.07	-0.000252958
259.28	0.002917387
259.49	-0.000657689
259.7	0.002242814
259.9	5.05917E-05
260.11	-0.000725146
260.32	-0.000354144
260.53	-1.68643E-05
260.74	-0.00119732
260.94	0.000725146
261.15	-0.000556503
261.36	0.001838124
261.57	-0.003591961
261.78	0.000421588
261.98	-0.000927505
262.19	0.00119732
262.4	0.000252958
262.61	0.001096148
262.82	-0.001973066
263.02	0.000354144
263.23	-0.00062396
263.44	0.002984927
263.65	-0.001332235
263.86	-0.002006836
264.06	-0.000860047
264.27	0.000826319
264.48	0.000421588
264.69	0.000927505
264.9	5.05917E-05
265.11	0.000387859
265.31	0.00079259
265.52	-0.000758875
265.73	-0.002344123
265.94	-0.000354144
266.15	0.000118046
266.35	-0.000860047
266.56	-0.000927505
266.77	0.001096148
266.98	-0.001399665
267.19	0.000118046
267.4	-0.001939297
267.61	0.000286687
267.81	0.000151772
268.02	0.000286687
268.23	-0.001905664
268.44	0.001973066
268.65	0.000927505
268.86	0.000556503
269.06	-0.000590231
269.27	-0.00119732
269.48	-0.00301856
269.69	0.001871894
269.9	-0.000522774
270.11	0.00261387
270.32	-0.002478928
270.52	8.4319E-05
270.73	0.001096148
270.94	-0.000252958
271.15	0.001500837
271.36	0.000151772
271.57	-0.000151772
271.78	-0.000927505
271.99	0.000961233
272.19	-1.68643E-05
272.4	0.000489045
272.61	-0.000590231
272.82	-0.000590231
273.03	1.68643E-05
273.24	-8.4319E-05
273.45	0.000893776
273.66	-0.001703182
273.87	-0.00062396
274.07	-0.001568377
274.28	-0.000657689
274.49	-0.002141641
274.7	-0.001905664
274.91	-5.05917E-05
275.12	-0.000522774
275.33	-0.001905664
275.54	0.001163592
275.75	-0.00160201
275.96	-0.001399665
276.17	-0.001804354
276.37	0.000118046
276.58	-0.001871894
276.79	0.000927505
277	-0.001804354
277.21	0.001231049
277.42	-0.002242814
277.63	0.000151772
277.84	-0.001365964
278.05	0.00119732
278.26	0.000522774
278.47	0.000826319
278.68	-1.68643E-05
278.89	0.002006836
279.09	-0.000893776
279.3	-0.000522774
279.51	0.000927505
279.72	-0.000387859
279.93	0.000354144
280.14	8.4319E-05
280.35	0.00021923
280.56	0.000354144
280.77	0.00163578
280.98	-0.000151772
281.19	-0.000455317
281.4	-0.001973066
281.61	0.000691418
281.82	0.001231049
282.03	-0.001231049
282.24	-0.001231049
282.45	-0.000320416
282.66	0.001939297
282.87	-0.000657689
283.08	-0.001231049
283.29	0.001231049
283.5	0.00163578
283.7	-0.00079259
283.91	-0.00079259
284.12	0.001669549
284.33	0.00163578
284.54	-0.000387859
284.75	-0.00062396
284.96	0.00160201
285.17	0.001433435
285.38	-0.002782582
285.59	0.001231049
285.8	-0.000556503
286.01	0.000758875
286.22	0.000387859
286.43	-0.000455317
286.64	-0.000387859
286.85	0.002141641
287.06	-0.000725146
287.27	-0.00079259
287.48	0.001365964
287.69	0.001365964
287.9	-0.000252958
288.11	0.001231049
288.32	-0.002141641
288.53	0.000489045
288.74	-0.000387859
288.95	0.000860047
289.16	0.00163578
289.37	0.000286687
289.58	-0.000758875
289.79	0.001399665
290	-0.000961233
290.21	0.000118046
290.43	-0.001433435
290.64	-0.000590231
290.85	-0.001804354
291.06	-0.002175411
291.27	-0.000826319
291.48	0.00119732
291.69	-0.000118046
291.9	-0.000320416
292.11	-0.003086099
292.32	0.000455317
292.53	-0.000994962
292.74	0.002006836
292.95	-0.000118046
293.16	0.002175411
293.37	-0.000455317
293.58	0.001736952
293.79	-0.00079259
294	1.68643E-05
294.21	-0.001062419
294.42	-0.000354144
294.63	-0.000252958
294.84	0.000522774
295.06	-0.002445296
295.27	0.00021923
295.48	-0.00119732
295.69	-0.001298506
295.9	0.001703182
296.11	0.000185501
296.32	-0.000994962
296.53	-0.00079259
296.74	-0.00119732
296.95	0.001231049
297.16	-0.00261387
297.37	-0.00163578
297.58	-0.001264778
297.79	-0.00079259
298.01	-0.000826319
298.22	-5.05917E-05
298.43	-0.001534607
298.64	-0.000185501
298.85	-0.000725146
299.06	0.002715043
299.27	8.4319E-05
299.48	0.000556503
299.69	-0.000657689
299.9	-0.000118046
300.12	-0.00264764
300.33	0.00163578
300.54	-0.001129877
300.75	-0.002242814
300.96	0.000994962
301.17	0.001500837
301.38	0.000590231
301.59	0.001804354
301.8	-0.00305233
302.02	0.001332235
302.23	0.000286687
302.44	-1.68643E-05
302.65	-0.00119732
302.86	8.4319E-05
303.07	-0.002074239
303.28	0.000927505
303.49	-1.68643E-05
303.71	0.001467205
303.92	-0.000320416
304.13	0.00261387
304.34	-0.001365964
304.55	0.001433435
304.76	-0.000556503
304.97	-0.001399665
305.18	-0.002917387
305.4	0.001669549
305.61	-0.001298506
305.82	1.68643E-05
306.03	-0.000252958
306.24	1.68643E-05
306.45	-0.000994962
306.67	0.002748813
306.88	-0.000826319
307.09	0.001500837
307.3	-0.000691418
307.51	0.000860047
307.72	-0.000387859
307.93	0.000657689
308.15	-0.000994962
308.36	0.000860047
308.57	-0.000387859
308.78	-0.000725146
308.99	1.68643E-05
309.21	-0.000590231
309.42	-0.000927505
309.63	-0.000387859
309.84	-0.002377756
310.05	0.001871894
310.26	5.05917E-05
310.48	0.001568377
310.69	5.05917E-05
310.9	-0.000387859
311.11	0.000421588
311.32	0.003490789
311.54	-0.001163592
311.75	0.001433435
311.96	0.000354144
312.17	0.001736952
312.38	0.001163592
312.6	0.002040469
312.81	-0.000387859
313.02	0.000252958
313.23	-0.002883755
313.44	-0.000590231
313.66	-0.001939297
313.87	0.001298506
314.08	-8.4319E-05
314.29	0.004536282
314.5	0.000320416
314.72	-0.000354144
314.93	-0.002040469
315.14	0.000421588
315.35	-0.00079259
315.56	0.001332235
315.78	-0.001129877
315.99	-0.001669549
316.2	-0.001939297
316.41	0.002748813
316.63	-0.001298506
316.84	0.002344123
317.05	-0.002849985
317.26	-0.000320416
317.48	-0.000590231
317.69	0.001838124
317.9	-0.000489045
318.11	0.001568377
318.33	-0.001939297
318.54	-0.000118046
318.75	0.000556503
318.96	0.00079259
319.17	-0.000860047
319.39	0.000522774
319.6	-0.001736952
319.81	-0.001129877
320.03	-0.000758875
320.24	0.002478928
320.45	-0.000286687
320.66	-0.000927505
320.88	-0.001231049
321.09	0.000556503
321.3	-0.000455317
321.51	0.002445296
321.73	-0.000320416
321.94	0.000556503
322.15	-0.001939297
322.36	0.000151772
322.58	-0.001736952
322.79	0.001433435
323	0.000354144
323.22	0.000489045
323.43	-0.002445296
323.64	0.001028691
323.85	-0.000421588
324.07	0.001298506
324.28	-0.000522774
324.49	-0.000893776
324.71	-0.000961233
324.92	-0.002344123
325.13	0.00062396
325.34	5.05917E-05
325.56	-0.001264778
325.77	-5.05917E-05
325.98	-0.002546468
326.2	0.000657689
326.41	-0.001298506
326.62	-0.000421588
326.84	-0.003254674
327.05	0.002175411
327.26	-0.002074239
327.47	-0.000421588
327.69	-0.001568377
327.9	-0.000151772
328.11	-0.000725146
328.33	0.000320416
328.54	-0.001669549
328.75	0.000994962
328.97	-0.001568377
329.18	-0.000185501
329.39	-0.000185501
329.61	-1.68643E-05
329.82	-0.00062396
330.03	0.000860047
330.25	0.00119732
330.46	0.001905664
330.67	0.000252958
330.89	0.001096148
331.1	0.00079259
331.31	-0.000826319
331.53	-0.001433435
331.74	0.000860047
331.95	-0.001871894
332.17	-0.000522774
332.38	0.000961233
332.59	0.002748813
332.81	0.000961233
333.02	-8.4319E-05
333.24	-0.002310353
333.45	0.000758875
333.66	0.000758875
333.88	-0.000590231
334.09	0.000151772
334.3	0.000860047
334.52	-0.001028691
334.73	0.000961233
334.94	0.000860047
335.16	0.000151772
335.37	-0.000421588
335.59	0.000151772
335.8	0.001028691
336.01	-0.000522774
336.23	0.000691418
336.44	-0.001871894
336.65	-0.00301856
336.87	-0.000118046
337.08	0.000421588
337.3	-1.68643E-05
337.51	-0.00160201
337.72	0.001332235
337.94	-0.002141641
338.15	0.000657689
338.37	0.001163592
338.58	0.000691418
338.79	-0.002782582
339.01	0.002276583
339.22	0.000489045
339.44	-8.4319E-05
339.65	-0.000252958
339.86	0.001467205
340.08	-0.001770722
340.29	0.000556503
340.51	-0.001399665
340.72	0.000826319
340.93	-0.001096148
341.15	0.000556503
341.36	-0.001129877
341.58	1.68643E-05
341.79	-0.001062419
342	0.000151772
342.22	-0.000860047
342.43	0.001264778
342.65	-0.001332235
342.86	-0.002175411
343.08	-0.000387859
343.29	0.000286687
343.5	-0.000387859
343.72	0.000320416
343.93	-0.00261387
344.15	0.00062396
344.36	-0.002209181
344.58	0.001973066
344.79	-0.002951157
345	5.05917E-05
345.22	0.00079259
345.43	-0.000354144
345.65	0.000556503
345.86	0.000994962
346.08	-0.001568377
346.29	-0.000387859
346.51	-0.000893776
346.72	-0.000556503
346.94	-0.001129877
347.15	-0.00021923
347.36	-0.000691418
347.58	0.001096148
347.79	-0.000691418
348.01	0.003457019
348.22	-0.000455317
348.44	-0.00021923
348.65	-0.002108009
348.87	0.00021923
349.08	0.000286687
349.3	-0.000556503
349.51	-0.001365964
349.73	-0.000387859
349.94	-0.001871894
350.16	0.001129877
350.37	0.000994962
350.59	-0.001129877
350.8	-0.00062396
351.01	0.000961233
351.23	-0.002917387
351.44	-0.000893776
351.66	-0.002006836
351.87	0.002512698
352.09	-0.000590231
352.3	0.000252958
352.52	0.001467205
352.73	5.05917E-05
352.95	0.000994962
353.16	-0.000354144
353.38	-0.001905664
353.59	0.002006836
353.81	-0.004199132
354.02	-0.000185501
354.24	-0.000691418
354.45	0.000151772
354.67	-0.002242814
354.88	-0.001871894
355.1	-0.001062419
355.32	0.00160201
355.53	0.000927505
355.75	5.05917E-05
355.96	-0.002108009
356.18	-0.000252958
356.39	0.00021923
356.61	0.001871894
356.82	-0.00163578
357.04	0.001129877
357.25	-0.00079259
357.47	0.001062419
357.68	-0.000657689
357.9	-0.000522774
358.11	-0.002681273
358.33	-0.001163592
358.54	-0.000657689
358.76	0.000320416
358.98	-0.000590231
359.19	0.00163578
359.41	-0.001332235
359.62	-0.000489045
359.84	-0.001129877
360.05	0.001500837
360.27	-0.002344123
360.48	0.002377756
360.7	-0.001433435
360.91	-0.001062419
361.13	-0.00079259
361.35	-0.000893776
361.56	0.000691418
361.78	1.68643E-05
361.99	-5.05917E-05
362.21	0.000860047
362.42	-0.000320416
362.64	0.001231049
362.86	0.000118046
363.07	0.000489045
363.29	-0.002478928
363.5	0.000691418
363.72	0.000961233
363.93	5.05917E-05
364.15	-0.003254674
364.37	-0.000252958
364.58	-0.001399665
364.8	0.00160201
365.01	-0.000387859
365.23	0.001804354
365.45	-0.00062396
365.66	0.000556503
365.88	-0.001939297
366.09	1.68643E-05
366.31	-0.001298506
366.53	-0.001399665
366.74	-0.001062419
366.96	0.000691418
367.17	-0.001129877
367.39	-0.000893776
367.61	-0.002883755
367.82	0.001231049
368.04	0.000522774
368.25	8.4319E-05
368.47	-0.001568377
368.69	0.000758875
368.9	0.000758875
369.12	0.001433435
369.33	-0.000860047
369.55	-8.4319E-05
369.77	-0.001129877
369.98	0.001028691
370.2	0.000118046
370.41	0.000691418
370.63	-0.000860047
370.85	-0.00021923
371.06	8.4319E-05
371.28	-0.000657689
371.5	-0.000691418
371.71	-0.00079259
371.93	-0.000860047
372.15	0.000927505
372.36	-0.001804354
372.58	0.000252958
372.79	-0.000691418
373.01	0.001838124
373.23	0.000286687
373.44	0.001467205
373.66	-0.000826319
373.88	0.001163592
374.09	0.000556503
374.31	0.00079259
374.53	-0.000522774
374.74	0.00160201
374.96	-0.001838124
375.18	0.000758875
375.39	-0.000893776
375.61	0.000556503
375.83	-0.000994962
376.04	0.001062419
376.26	-0.001332235
376.48	0.001534607
376.69	0.00079259
376.91	-5.05917E-05
377.13	-0.001399665
377.34	-0.00021923
377.56	0.001568377
377.78	0.001096148
377.99	-0.001163592
378.21	0.002512698
378.43	-0.00062396
378.64	0.00062396
378.86	-0.000927505
379.08	0.000758875
379.29	-0.002006836
379.51	-0.00021923
379.73	0.00079259
379.94	0.001096148
380.16	-0.003086099
380.38	0.000758875
380.6	-0.001129877
380.81	-0.00062396
381.03	-0.000691418
381.25	-8.4319E-05
381.46	-0.003490789
381.68	0.000320416
381.9	0.000421588
382.11	-0.000961233
382.33	-0.002006836
382.55	5.05917E-05
382.77	-0.001028691
382.98	0.000657689
383.2	-0.001973066
383.42	0.000354144
383.63	-0.001399665
383.85	0.001298506
384.07	-0.002748813
384.29	-0.001231049
384.5	0.000387859
384.72	0.001669549
384.94	-0.001062419
385.15	-0.000354144
385.37	-0.000354144
385.59	0.000151772
385.81	0.001028691
386.02	-0.000151772
386.24	0.001500837
386.46	0.000286687
386.68	-0.001129877
386.89	0.001264778
387.11	-0.001736952
387.33	-0.000354144
387.55	-0.000826319
387.76	-0.000522774
387.98	0.001231049
388.2	-0.001939297
388.42	-0.001973066
388.63	-0.002074239
388.85	0.000556503
389.07	-0.002344123
389.29	-0.00160201
389.5	-0.001399665
389.72	-0.001905664
389.94	-0.000657689
390.16	-0.001568377
390.37	0.000455317
390.59	-0.001770722
390.81	-0.000489045
391.03	-0.000994962
391.24	0.000455317
391.46	-0.000657689
391.68	0.001399665
391.9	-0.000354144
392.11	0.000826319
392.33	-0.001669549
392.55	0.000489045
392.77	-0.000590231
392.99	0.000994962
393.2	-0.001365964
393.42	0.000185501
393.64	-0.000893776
393.86	0.000691418
394.07	0.000354144
394.29	-0.00062396
394.51	-0.001433435
394.73	0.001096148
394.95	-0.00079259
395.16	0.000826319
395.38	-0.001467205
395.6	0.002006836
395.82	-0.001939297
396.04	0.002141641
396.25	-0.00261387
396.47	0.000725146
396.69	0.000691418
396.91	0.001500837
397.13	-0.001433435
397.34	0.000455317
397.56	0.000387859
397.78	0.00062396
398	-0.000590231
398.22	-0.001433435
398.44	-0.001838124
398.65	0.000421588
398.87	-0.000252958
399.09	0.00062396
399.31	1.68643E-05
399.53	-0.001399665
399.74	-0.001703182
399.96	-0.001467205
400.18	0.001669549
400.4	-0.000590231
400.62	-1.68643E-05
400.84	0.000657689
401.05	-0.002209181
401.27	-0.000118046
401.49	-0.00079259
401.71	0.001804354
401.93	-0.001500837
402.15	0.000893776
402.36	-0.000893776
402.58	-5.05917E-05
402.8	-0.00301856
403.02	0.001703182
403.24	-0.000893776
403.46	-0.000387859
403.68	0.00399665
403.89	-0.002748813
404.11	0.002512698
404.33	0.00062396
404.55	-0.001129877
404.77	-0.000994962
404.99	0.000354144
405.21	-0.00261387
405.42	-0.001062419
405.64	-1.68643E-05
405.86	0.000860047
406.08	-0.001096148
406.3	0.000387859
406.52	-0.000826319
406.74	0.001028691
406.95	-8.4319E-05
407.17	-0.002108009
407.39	-0.001365964
407.61	0.001770722
407.83	-0.003558191
408.05	-0.000286687
408.27	-0.000118046
408.49	0.002108009
408.71	-0.002377756
408.92	0.000994962
409.14	-0.001736952
409.36	0.00160201
409.58	-0.0025801
409.8	0.001231049
410.02	0.000489045
410.24	-0.00062396
410.46	-0.001669549
410.68	0.001669549
410.89	-0.000961233
411.11	-0.001231049
411.33	-0.001871894
411.55	-0.000590231
411.77	-0.000691418
411.99	0.001264778
412.21	-0.001298506
412.43	-0.00062396
412.65	-0.002883755
412.87	-0.001939297
413.08	-0.001804354
413.3	0.000556503
413.52	-0.000455317
413.74	0.001096148
413.96	-0.001467205
414.18	0.000691418
414.4	-0.000657689
414.62	0.00160201
414.84	-0.001129877
415.06	-0.00264764
415.28	0.000826319
415.5	0.002984927
415.72	0.002175411
415.93	-0.001365964
416.15	0.000522774
416.37	-0.000556503
416.59	-0.00264764
416.81	0.000556503
417.03	-0.000826319
417.25	0.000758875
417.47	0.00062396
417.69	-8.4319E-05
417.91	-0.000151772
418.13	-0.000286687
418.35	-0.00305233
418.57	-0.000387859
418.79	-0.001365964
419.01	-1.68643E-05
419.23	8.4319E-05
419.45	0.000927505
419.67	0.001096148
419.89	0.001298506
420.1	-0.001264778
420.32	-0.000455317
420.54	-0.00079259
420.76	1.68643E-05
420.98	0.00021923
421.2	-0.00021923
421.42	-0.000185501
421.64	0.000185501
421.86	-0.000556503
422.08	0.000725146
422.3	-0.000860047
422.52	-0.000860047
422.74	-0.002344123
422.96	0.000151772
423.18	-0.00062396
423.4	-0.000151772
423.62	-0.001703182
423.84	-0.000590231
424.06	-0.001129877
424.28	0.002242814
424.5	0.000354144
424.72	0.002951157
424.94	0.001062419
425.16	0.000826319
425.38	-0.00119732
425.6	0.000320416
425.82	-0.001062419
426.04	-0.00079259
426.26	-0.000421588
426.48	-0.002344123
426.7	-0.001669549
426.92	0.000118046
427.14	0.000590231
427.36	0.001365964
427.58	-1.68643E-05
427.8	0.001804354
428.02	-0.002242814
428.24	-0.001231049
428.46	0.001399665
428.68	0.001365964
428.9	0.002108009
429.12	0.000758875
429.34	-0.001467205
429.56	0.000927505
429.78	-0.000657689
430	-0.001332235
430.22	0.000421588
430.44	0.000860047
430.66	0.000252958
430.88	-0.001028691
431.1	0.000151772
431.32	0.001669549
431.54	-0.001669549
431.76	0.000927505
431.98	0.003221042
432.2	0.000354144
432.42	0.001163592
432.64	0.001467205
432.87	0.003288444
433.09	0.001433435
433.31	0.000590231
433.53	0.002816215
433.75	0.004401477
433.97	0.004502649
434.19	0.005210856
434.41	0.003895478
434.63	0.00726821
434.85	0.005952832
435.07	0.009494276
435.29	0.012259973
435.51	0.011956456
435.73	0.010000137
435.95	0.015362546
436.17	0.014317876
436.39	0.021467205
436.61	0.02079318
436.83	0.023862669
437.06	0.020894764
437.28	0.03006754
437.5	0.02976416
437.72	0.03725256
437.94	0.03799385
438.16	0.04318837
438.38	0.041265135
438.6	0.052057766
438.82	0.053171073
439.04	0.059680696
439.26	0.054992724
439.48	0.066088735
439.7	0.068146501
439.93	0.075735112
440.15	0.077522445
440.37	0.084773357
440.59	0.086831123
440.81	0.095498723
441.03	0.095533042
441.25	0.104403811
441.47	0.110339621
441.69	0.119648299
441.91	0.121199517
442.13	0.125887489
442.36	0.124167422
442.58	0.133813799
442.8	0.140597974
443.02	0.149397359
443.24	0.153749005
443.46	0.163934876
443.68	0.159679324
443.9	0.173036268
444.12	0.178033111
444.35	0.189838838
444.57	0.194355215
444.79	0.202852593
445.01	0.210169398
445.23	0.220725915
445.45	0.22194767
445.67	0.239244433
445.89	0.241440848
446.12	0.253205392
446.34	0.254125141
446.56	0.271586635
446.78	0.271188535
447	0.286357521
447.22	0.285918238
447.44	0.304807402
447.66	0.314526535
447.89	0.32629108
448.11	0.337026055
448.33	0.341336518
448.55	0.348021854
448.77	0.368393597
448.99	0.374900475
449.21	0.389877275
449.44	0.391126486
449.66	0.41354364
449.88	0.418403207
450.1	0.43182879
450.32	0.441918568
450.54	0.464280812
450.76	0.469977761
450.99	0.489127749
451.21	0.503061253
451.43	0.517736046
451.65	0.524311561
451.87	0.542555528
452.09	0.544079291
452.32	0.5681163
452.54	0.577492244
452.76	0.592167037
452.98	0.609710897
453.2	0.621242072
453.42	0.629162892
453.65	0.653625456
453.87	0.664580073
454.09	0.681986657
454.31	0.692378442
454.53	0.70161711
454.75	0.721275019
454.98	0.734233863
455.2	0.744886473
455.42	0.765395492
455.64	0.774263515
455.86	0.778519068
456.09	0.794401889
456.31	0.819523378
456.53	0.834706092
456.75	0.832880323
456.97	0.849312248
457.19	0.868695604
457.42	0.874104275
457.64	0.886980754
457.86	0.899596409
458.08	0.914600664
458.3	0.911333498
458.53	0.927628147
458.75	0.939873157
458.97	0.943538424
459.19	0.953490926
459.41	0.965228015
459.64	0.983211158
459.86	0.982538506
460.08	0.984350548
460.3	0.98388381
460.53	0.991845812
460.75	0.99726821
460.97	0.996156275
461.19	0.988633556
461.41	1
461.64	0.986780331
461.86	0.991543805
462.08	0.987686352
462.3	0.976869011
462.53	0.968467726
462.75	0.956387447
462.97	0.961658842
463.19	0.962702139
463.41	0.943579606
463.64	0.945707383
463.86	0.919803421
464.08	0.933723197
464.3	0.913667188
464.53	0.913722099
464.75	0.881242621
464.97	0.876561513
465.19	0.864083134
465.42	0.843670208
465.64	0.836696593
465.86	0.818205529
466.08	0.79416852
466.31	0.791697554
466.53	0.772314197
466.75	0.754935069
466.97	0.72650523
467.2	0.718035307
467.42	0.699091234
467.64	0.691362601
467.86	0.661587458
468.09	0.658347747
468.31	0.636356149
468.53	0.630549378
468.75	0.597232518
468.98	0.596752052
469.2	0.568596766
469.42	0.553317958
469.64	0.536007468
469.87	0.530118332
470.09	0.505998957
470.31	0.501276666
470.54	0.480397002
470.76	0.461068556
470.98	0.456854186
471.2	0.441987206
471.43	0.429096999
471.65	0.413680916
471.87	0.406089559
472.09	0.388957527
472.32	0.374859292
472.54	0.364851879
472.76	0.353650166
472.99	0.351261565
473.21	0.324245669
473.43	0.32976416
473.65	0.308115751
473.88	0.307786289
474.1	0.291697554
474.32	0.283598276
474.55	0.270035417
474.77	0.269637317
474.99	0.255539082
475.22	0.252093457
475.44	0.23755594
475.66	0.236924471
475.88	0.21762348
476.11	0.216003624
476.33	0.20548829
476.55	0.198569585
476.78	0.184773357
477	0.186901134
477.22	0.178499849
477.45	0.176138704
477.67	0.166296022
477.89	0.169165088
478.12	0.156576888
478.34	0.153817643
478.56	0.148216786
478.79	0.147132307
479.01	0.135735662
479.23	0.1334761
479.46	0.127574609
479.68	0.12524641
479.9	0.112328748
480.13	0.114993273
480.35	0.110036241
480.57	0.106696318
480.8	0.09603959
481.02	0.094655849
481.24	0.090305576
481.47	0.094319523
481.69	0.08278423
481.91	0.082986025
482.14	0.07455454
482.36	0.074420009
482.58	0.065245861
482.81	0.072058864
483.03	0.060590835
483.25	0.065785355
483.48	0.056409412
483.7	0.060220191
483.92	0.052733163
484.15	0.055768333
484.37	0.049022596
484.59	0.044975702
484.82	0.041838948
485.04	0.043896714
485.26	0.030370919
485.49	0.041873267
485.71	0.031653076
485.94	0.033676523
486.16	0.028011147
486.38	0.028314527
486.61	0.024198995
486.83	0.027235538
487.05	0.022344398
487.28	0.026324026
487.5	0.019274909
487.73	0.022411663
487.95	0.01529528
488.17	0.017015347
488.4	0.014519672
488.62	0.01546413
488.84	0.012428548
489.07	0.014586937
489.29	0.011315515
489.52	0.013271696
489.74	0.009831562
489.96	0.011551629
490.19	0.010506136
490.41	0.007571864
490.64	0.008819702
490.86	0.006728578
491.08	0.009224528
491.31	0.00730198
491.53	0.006391291
491.76	0.005244626
491.98	0.005649315
492.2	0.004603822
492.43	0.006964693
492.65	0.002478928
492.88	0.002512698
493.1	0.004907339
493.32	0.004300305
493.55	0.000826319
493.77	0.003625731
494	0.003558191
494.22	0.002108009
494.44	0.002310353
494.67	0.001231049
494.89	0.002883755
495.12	0.003828076
495.34	0.001298506
495.56	0.005042281
495.79	0.00163578
496.01	0.002006836
496.24	0.001838124
496.46	0.002512698
496.69	0.003221042
496.91	0.00264764
497.13	0.001096148
497.36	0.000286687
497.58	0.002512698
497.81	0.000826319
498.03	0.000994962
498.26	-0.000860047
498.48	0.001500837
498.71	0.000455317
498.93	-0.001231049
499.15	0.001736952
499.38	-0.000185501
499.6	0.003254674
499.83	-0.001433435
500.05	0.001231049
500.28	-0.000725146
500.5	0.001332235
500.73	-0.000320416
500.95	0.001905664
501.17	-0.002344123
501.4	0.001332235
501.62	-0.000354144
501.85	0.001028691
502.07	-0.000860047
502.3	0.001332235
502.52	-0.00021923
502.75	-0.000286687
502.97	0.000252958
503.2	0.002175411
503.42	0.001028691
503.64	-0.000893776
503.87	0.000826319
504.09	-0.001804354
504.32	-0.000860047
504.54	-0.001534607
504.77	5.05917E-05
504.99	0.001804354
505.22	-0.002849985
505.44	0.000286687
505.67	-0.001703182
505.89	0.000320416
506.12	0.00021923
506.34	0.002141641
506.57	-0.001770722
506.79	-0.002478928
507.02	-0.001231049
507.24	-0.00021923
507.47	0.000590231
507.69	-0.000590231
507.92	-0.000590231
508.14	0.000758875
508.37	0.000151772
508.59	0.000252958
508.82	-0.000961233
509.04	5.05917E-05
509.27	-0.000151772
509.49	0.000387859
509.72	-0.000387859
509.94	0.000387859
510.17	-0.000354144
510.39	5.05917E-05
510.62	-0.001669549
510.84	-0.000826319
511.07	1.68643E-05
511.29	8.4319E-05
511.52	-0.00264764
511.74	0.002209181
511.97	0.000151772
512.19	-0.001534607
512.42	-0.00119732
512.64	0.000252958
512.87	-0.000860047
513.09	0.001298506
513.32	0.000252958
513.54	0.000826319
513.77	-0.002681273
513.99	1.68643E-05
514.22	-0.000657689
514.44	0.000151772
514.67	-0.001399665
514.89	0.000354144
515.12	-0.000118046
515.34	0.000556503
515.57	-0.003288444
515.8	0.001365964
516.02	0.000725146
516.25	-0.000185501
516.47	-0.000556503
516.7	0.000320416
516.92	0.00079259
517.15	0.000151772
517.37	0.000286687
517.6	-0.00160201
517.82	0.000387859
518.05	-0.000455317
518.27	0.001838124
518.5	-0.001028691
518.73	0.00021923
518.95	-0.002377756
519.18	0.001568377
519.4	0.001500837
519.63	-0.000354144
519.85	-0.000994962
520.08	0.002984927
520.3	0.000826319
520.53	0.001534607
520.76	-0.000994962
520.98	-0.000657689
521.21	-0.000994962
521.43	0.000961233
521.66	-0.001838124
521.88	0.00062396
522.11	-0.002074239
522.34	0.000320416
522.56	-0.000860047
522.79	0.00062396
523.01	-0.000387859
523.24	-0.000320416
523.46	0.001163592
523.69	5.05917E-05
523.92	-0.00079259
524.14	5.05917E-05
524.37	-0.001838124
524.59	0.000354144
524.82	-0.001399665
525.05	-0.000657689
525.27	-0.001770722
525.5	-0.001433435
525.72	-5.05917E-05
525.95	0.001096148
526.17	-0.000725146
526.4	0.000961233
526.63	-0.002478928
526.85	0.002276583
527.08	-0.001669549
527.3	0.002310353
527.53	-0.001568377
527.76	0.000691418
527.98	-0.001231049
528.21	-0.000151772
528.43	-1.68643E-05
528.66	-0.000826319
528.89	0.000320416
529.11	-0.000151772
529.34	-0.000455317
529.56	-0.000725146
529.79	0.000860047
530.02	0.001669549
530.24	-0.00062396
530.47	0.000556503
530.7	-0.000387859
530.92	0.000286687
531.15	0.002276583
531.37	-0.001365964
531.6	-0.003457019
531.83	-0.00062396
532.05	-0.000893776
532.28	-0.000860047
532.51	-0.002209181
532.73	0.000994962
532.96	-0.000455317
533.18	0.000455317
533.41	-0.001028691
533.64	-0.002984927
533.86	-0.000522774
534.09	-0.000387859
534.32	0.001062419
534.54	-0.001399665
534.77	-0.00261387
535	-0.00079259
535.22	-0.000893776
535.45	0.000489045
535.67	-0.000657689
535.9	0.000354144
536.13	0.000455317
536.35	1.68643E-05
536.58	-0.000725146
536.81	-0.001905664
537.03	-0.000421588
537.26	0.000455317
537.49	-0.001399665
537.71	-0.000421588
537.94	-0.002748813
538.17	0.000185501
538.39	-0.000421588
538.62	-0.000927505
538.85	-0.000252958
539.07	0.000151772
539.3	-5.05917E-05
539.53	0.00119732
539.75	-0.000927505
539.98	-0.000387859
540.21	-0.001096148
540.43	0.000286687
540.66	-0.001332235
540.89	0.000691418
541.11	-1.68643E-05
541.34	0.001062419
541.57	-0.000758875
541.79	0.00021923
542.02	0.000387859
542.25	0.000927505
542.47	-0.00160201
542.7	-0.001669549
542.93	-0.002276583
543.15	0.000118046
543.38	-0.001298506
543.61	0.00264764
543.83	-0.001264778
544.06	-0.00119732
544.29	-0.002478928
544.51	0.001332235
544.74	-0.001231049
544.97	8.4319E-05
545.2	0.000387859
545.42	-0.001736952
545.65	-0.000860047
545.88	0.002546468
546.1	-0.000522774
546.33	0.000758875
546.56	0.000320416
546.78	0.001163592
547.01	-0.001905664
547.24	0.002411526
547.47	0.000556503
547.69	-5.05917E-05
547.92	0.000118046
548.15	-0.000354144
548.37	-0.000725146
548.6	-0.000252958
548.83	-0.000590231
549.06	-0.001669549
549.28	-0.001062419
549.51	0.001365964
549.74	-0.00163578
549.96	-0.002074239
550.19	0.000354144
550.42	0.000151772
550.65	-0.000252958
550.87	0.00163578
551.1	-0.002681273
551.33	-5.05917E-05
551.55	-0.001973066
551.78	-0.001163592
552.01	-0.001096148
552.24	0.002242814
552.46	-0.001129877
552.69	-0.000354144
552.92	-0.000893776
553.15	0.001163592
553.37	-0.000927505
553.6	-0.000860047
553.83	-0.00119732
554.06	-8.4319E-05
554.28	-1.68643E-05
554.51	0.001905664
554.74	-0.000691418
554.97	0.000758875
555.19	5.05917E-05
555.42	0.00062396
555.65	0.000961233
555.87	-0.000185501
556.1	0.000657689
556.33	0.000252958
556.56	0.002310353
556.79	-0.00021923
557.01	-0.00264764
557.24	0.001703182
557.47	-0.001129877
557.7	0.000522774
557.92	-0.000354144
558.15	0.001467205
558.38	-0.000455317
558.61	0.000489045
558.83	-0.001973066
559.06	0.00021923
559.29	-0.000286687
559.52	0.000691418
559.74	0.001332235
559.97	-0.001399665
560.2	0.000354144
560.43	0.000590231
560.66	0.000927505
560.88	0.002074239
561.11	-0.001399665
561.34	0.00119732
561.57	-0.001231049
561.79	0.000151772
562.02	-0.000893776
562.25	0.001467205
562.48	-0.002209181
562.71	-0.001163592
562.93	-0.000927505
563.16	0.00062396
563.39	-0.00160201
563.62	-0.00062396
563.84	-0.000118046
564.07	0.000455317
564.3	-0.002445296
564.53	0.000118046
564.76	-0.001163592
564.98	-0.000286687
565.21	-0.001399665
565.44	-0.000387859
565.67	0.000151772
565.9	-0.000421588
566.12	0.001298506
566.35	-0.001770722
566.58	-0.000118046
566.81	0.000522774
567.04	-0.003524559
567.26	-0.000657689
567.49	-0.001399665
567.72	0.000927505
567.95	-0.000522774
568.18	0.001298506
568.41	0.000455317
568.63	0.000961233
568.86	0.00079259
569.09	0.000320416
569.32	-0.002006836
569.55	0.001399665
569.77	-0.000455317
570	0.001736952
570.23	-0.00160201
570.46	0.000286687
570.69	-0.000118046
570.92	0.001669549
571.14	-0.002310353
571.37	0.000489045
571.6	-0.000691418
571.83	-0.001669549
572.06	-0.001264778
572.29	0.000455317
572.51	-0.000860047
572.74	0.000455317
572.97	-0.001534607
573.2	-0.000118046
573.43	0.000994962
573.66	0.00079259
573.88	-0.000522774
574.11	0.002040469
574.34	-0.000758875
574.57	0.000489045
574.8	0.000556503
575.03	-0.001467205
575.26	0.001096148
575.48	0.00119732
575.71	-1.68643E-05
575.94	-0.001770722
576.17	-0.000590231
576.4	-0.001467205
576.63	-0.001534607
576.85	-0.000826319
577.08	-0.000657689
577.31	-0.000118046
577.54	-0.000522774
577.77	-0.000421588
578	0.001838124
578.23	-0.001163592
578.46	0.000590231
578.68	-0.00163578
578.91	0.000961233
579.14	-0.002006836
579.37	0.001129877
579.6	-0.001129877
579.83	-0.001399665
580.06	-1.68643E-05
580.28	0.000455317
580.51	-0.000118046
580.74	0.000826319
580.97	-0.00119732
581.2	0.000320416
581.43	-0.002209181
581.66	5.05917E-05
581.89	-0.000455317
582.12	0.000522774
582.34	-0.002242814
582.57	0.00079259
582.8	-0.001399665
583.03	0.000590231
583.26	-0.000725146
583.49	-0.000387859
583.72	-0.00079259
583.95	-0.001163592
584.18	-0.001264778
584.4	0.002377756
584.63	-0.001804354
584.86	0.001534607
585.09	-8.4319E-05
585.32	0.001231049
585.55	-0.001433435
585.78	0.001399665
586.01	0.000421588
586.24	-0.000185501
586.47	-0.002478928
586.69	0.000252958
586.92	-0.001264778
587.15	-0.000354144
587.38	0.000151772
587.61	0.000455317
587.84	-0.000118046
588.07	-0.001433435
588.3	-0.002411526
588.53	-0.000860047
588.76	-0.001399665
588.99	-0.001939297
589.21	-0.002445296
589.44	0.001365964
589.67	-0.001264778
589.9	0.002074239
590.13	-0.000118046
590.36	0.000657689
590.59	-0.000455317
590.82	0.001096148
591.05	-0.001838124
591.28	0.000421588
591.51	-0.001838124
591.74	-0.00119732
591.97	-0.000421588
592.19	0.001231049
592.42	-0.000961233
592.65	-0.000387859
592.88	8.4319E-05
593.11	-0.000455317
593.34	0.000691418
593.57	-0.000118046
593.8	-0.000556503
594.03	0.000590231
594.26	0.001028691
594.49	0.000421588
594.72	-0.000725146
594.95	-0.001871894
595.18	-0.000994962
595.41	1.68643E-05
595.64	-0.001365964
595.87	0.000893776
596.1	0.000826319
596.32	-0.001838124
596.55	0.000556503
596.78	-0.000421588
597.01	-0.001804354
597.24	0.00062396
597.47	-0.000286687
597.7	0.000927505
597.93	-0.000252958
598.16	0.001669549
598.39	-0.000927505
598.62	0.001399665
598.85	0.000556503
599.08	0.001534607
599.31	-0.001500837
599.54	-0.000455317
599.77	-0.001062419
600	-5.05917E-05
600.23	-0.001467205
600.46	0.002478928
600.69	-0.00021923
600.92	0.002546468
601.15	0.000320416
601.38	0.000961233
601.61	-0.000860047
601.84	0.00163578
602.07	0.001804354
602.3	-0.000725146
602.53	0.00079259
602.76	0.000691418
602.99	0.000590231
603.22	-0.00160201
603.45	-0.000354144
603.68	0.001028691
603.91	-0.000657689
604.14	0.002175411
604.36	-0.000522774
604.59	0.000927505
604.82	-0.000691418
605.05	0.001028691
605.28	0.00021923
605.51	0.001231049
605.74	-0.002006836
605.97	0.002209181
606.2	-0.000961233
606.43	0.000421588
606.66	-0.002512698
606.89	-8.4319E-05
607.12	-0.001264778
607.35	0.00301856
607.58	-0.000489045
607.81	-0.001028691
608.05	-0.001534607
608.28	-0.001568377
608.51	0.00062396
608.74	0.000860047
608.97	0.000286687
609.2	-0.000354144
609.43	-0.001500837
609.66	0.000489045
609.89	-0.001332235
610.12	0.00062396
610.35	-0.000522774
610.58	-0.000657689
610.81	-0.001298506
611.04	0.000691418
611.27	-0.000758875
611.5	-0.000758875
611.73	-0.001028691
611.96	0.000758875
612.19	-0.00062396
612.42	-0.001365964
612.65	-0.000118046
612.88	0.00261387
613.11	-0.001433435
613.34	0.001433435
613.57	0.000758875
613.8	-0.00079259
614.03	-0.000657689
614.26	-0.001298506
614.49	-0.00119732
614.72	0.001669549
614.95	-0.00079259
615.18	-0.000691418
615.41	-0.001568377
615.64	-0.000556503
615.87	0.001163592
616.1	-0.002748813
616.34	0.00062396
616.57	-0.000893776
616.8	0.001129877
617.03	0.000893776
617.26	-0.000556503
617.49	0.001399665
617.72	-0.000185501
617.95	0.000725146
618.18	-0.000893776
618.41	-0.000556503
618.64	-0.00163578
618.87	0.00021923
619.1	-0.003490789
619.33	-0.00062396
619.56	-0.001365964
619.79	0.000893776
620.02	0.00021923
620.26	0.001838124
620.49	-0.001231049
620.72	0.000758875
620.95	-0.00062396
621.18	-0.000590231
621.41	0.001534607
621.64	-0.000725146
621.87	-0.000860047
622.1	0.000961233
622.33	-0.002546468
622.56	0.001365964
622.79	5.05917E-05
623.02	-0.000556503
623.25	-0.000387859
623.49	5.05917E-05
623.72	1.68643E-05
623.95	-0.00021923
624.18	-0.000927505
624.41	0.000354144
624.64	0.001399665
624.87	0.00079259
625.1	-0.001129877
625.33	0.000522774
625.56	0.000725146
625.79	5.05917E-05
626.03	5.05917E-05
626.26	-0.000758875
626.49	-0.000556503
626.72	-0.000522774
626.95	0.000725146
627.18	-1.68643E-05
627.41	-0.002411526
627.64	0.002006836
627.87	0.000927505
628.1	0.000893776
628.33	-0.001028691
628.57	-0.000421588
628.8	-0.001939297
629.03	-0.001838124
629.26	-0.000725146
629.49	0.000489045
629.72	-0.001399665
629.95	-0.001129877
630.18	-5.05917E-05
630.41	0.000185501
630.65	-0.000522774
630.88	-0.000758875
631.11	-0.000961233
631.34	-0.000725146
631.57	-0.000590231
631.8	0.00305233
632.03	-8.4319E-05
632.26	0.000118046
632.5	-0.001467205
632.73	0.000151772
632.96	-0.000421588
633.19	0.000151772
633.42	-0.002546468
633.65	-0.001298506
633.88	0.001703182
634.11	-0.000522774
634.35	-0.000354144
634.58	-0.00079259
634.81	0.001500837
635.04	-0.001467205
635.27	0.001231049
635.5	-0.001129877
635.73	-0.00062396
635.96	-0.003490789
636.2	0.000826319
636.43	-0.000556503
636.66	0.002074239
636.89	-0.000151772
637.12	0.000354144
637.35	-0.001062419
637.58	-0.000522774
637.82	-0.000860047
638.05	0.00163578
638.28	-0.000387859
638.51	0.000860047
638.74	-0.001062419
638.97	-1.68643E-05
639.21	-0.002310353
639.44	-0.000691418
639.67	-0.001332235
639.9	0.00062396
640.13	-0.001871894
640.36	-0.001163592
640.59	-0.000455317
640.83	0.000455317
641.06	-1.68643E-05
641.29	-0.000489045
641.52	-8.4319E-05
641.75	-5.05917E-05
641.98	-0.001062419
642.22	-0.000758875
642.45	-0.00079259
642.68	-1.68643E-05
642.91	0.000860047
643.14	-0.000522774
643.37	-0.000286687
643.61	-0.000860047
643.84	-0.000893776
644.07	-0.00062396
644.3	-0.00062396
644.53	0.000893776
644.76	-5.05917E-05
645	0.000455317
645.23	-0.001534607
645.46	0.000354144
645.69	-0.000826319
645.92	0.000556503
646.16	-0.000758875
646.39	-0.000860047
646.62	0.000691418
646.85	-0.002141641
647.08	-0.001365964
647.31	-0.001096148
647.55	-0.001905664
647.78	0.001365964
648.01	-0.002328062
648.24	0.000255361
648.47	-0.001509211
648.71	-0.000185281
648.94	-0.001946847
649.17	-8.468E-05
649.4	1.68067E-05
649.63	-0.000994221
649.87	-0.000186819
650.1	-0.000252409
650.33	-0.000738132
650.56	0.000908588
650.79	0.000608791
651.03	0.003895615
651.26	-0.000483033
651.49	0.001923784
651.72	0.001379897
651.95	-0.000901958
652.19	-0.00192955
652.42	-0.000599305
652.65	-0.002142739
652.88	-0.001423688
653.12	-0.000556681
653.35	0.000160764
653.58	0.001966477
653.81	0.001079126
654.04	-0.00080375
654.28	-0.001701535
654.51	-0.000801664
654.74	0.001129767
654.97	0.001681355
655.2	-0.001019315
655.44	-0.001574692
655.67	0.000407325
655.9	-0.001037435
656.13	0.001079757
656.37	-0.001410647
656.6	0.000284285
656.83	-0.000742745
657.06	0.001542295
657.3	-0.001109972
657.53	-0.000220451
657.76	-0.002460121
657.99	-0.000186215
658.22	-0.003006617
658.46	0.002376383
658.69	-0.002546468
658.92	5.05917E-05
659.15	-5.05917E-05
659.39	-0.002782582
659.62	-0.00119732
659.85	-0.001770722
660.08	-0.000286687
660.32	-0.000725146
660.55	-0.00163578
660.78	0.001129877
661.01	-0.000354144
661.25	-0.000556503
661.48	-0.000556503
661.71	-0.000860047
661.94	-0.000118046
662.18	0.001703182
662.41	-0.001973066
662.64	0.001096148
662.87	0.001838124
663.11	-0.001129877
663.34	-0.000455317
663.57	-0.00163578
663.8	-0.000893776
664.04	-0.000387859
664.27	-0.001129877
664.5	0.00163578
664.73	0.000961233
664.97	0.000421588
665.2	-0.003591961
665.43	-0.002040469
665.67	-0.002344123
665.9	0.000826319
666.13	-0.001770722
666.36	-0.00119732
666.6	-0.002546468
666.83	-0.000354144
667.06	0.000994962
667.29	0.001231049
667.53	0.000455317
667.76	0.002445296
667.99	-0.000927505
668.23	0.002917387
668.46	8.4319E-05
668.69	-0.000455317
668.92	-0.001264778
669.16	-0.00079259
669.39	-0.001838124
669.62	0.001534607
669.86	-0.001804354
670.09	-0.00079259
670.32	-0.002209181
670.55	0.000455317
670.79	-0.001062419
671.02	0.001736952
671.25	-0.001669549
671.49	-0.000185501
671.72	-0.002310353
671.95	-0.000185501
672.18	0.000927505
672.42	0.001939297
672.65	0.001332235
672.88	0.001163592
673.12	-0.001231049
673.35	0.000725146
673.58	0.000860047
673.82	-0.000927505
674.05	-0.000522774
674.28	0.000758875
674.51	0.000826319
674.75	-1.68643E-05
674.98	0.000455317
675.21	0.001062419
675.45	-0.000522774
675.68	-0.000522774
675.91	-0.000118046
676.15	-8.4319E-05
676.38	-0.001163592
676.61	0.001298506
676.85	-0.001298506
677.08	0.001096148
677.31	-0.000387859
677.54	0.000421588
677.78	-0.002546468
678.01	0.001298506
678.24	-0.003558191
678.48	-0.001062419
678.71	0.001231049
678.94	0.001770722
679.18	0.002006836
679.41	0.001129877
679.64	-0.000691418
679.88	0.000893776
680.11	-0.002108009
680.34	-0.000556503
680.58	-5.05917E-05
680.81	-0.001433435
681.04	-0.000320416
681.28	-0.001062419
681.51	-0.001433435
681.74	8.4319E-05
681.98	-0.001399665
682.21	-0.000185501
682.44	-0.000151772
682.68	0.001669549
682.91	-0.000725146
683.14	-0.000455317
683.38	0.000522774
683.61	0.00079259
683.84	-0.001399665
684.08	0.000252958
684.31	0.000489045
684.54	0.000151772
684.78	-1.68643E-05
685.01	0.001129877
685.25	0.000758875
685.48	-0.001433435
685.71	-0.000354144
685.95	0.000961233
686.18	-0.001939297
686.41	0.000961233
686.65	-0.002209181
686.88	0.000725146
687.11	-0.001264778
687.35	-0.001905664
687.58	-0.001264778
687.81	0.002849985
688.05	-0.000691418
688.28	-1.68643E-05
688.52	-0.002040469
688.75	0.002344123
688.98	0.000387859
689.22	0.000860047
689.45	-0.001062419
689.68	0.000893776
689.92	-0.000691418
690.15	0.000286687
690.38	-0.000320416
690.62	0.000961233
690.85	0.001332235
691.09	-0.000286687
691.32	8.4319E-05
691.55	-0.000387859
691.79	-0.001332235
692.02	0.000556503
692.25	-0.00062396
692.49	0.000961233
692.72	-0.00079259
692.96	0.000994962
693.19	-5.05917E-05
693.42	-0.00160201
693.66	0.00021923
693.89	-0.002006836
694.12	0.001332235
694.36	0.00021923
694.59	0.001534607
694.83	0.000354144
695.06	0.000691418
695.29	-0.002074239
695.53	0.000522774
695.76	-0.000522774
696	0.000522774
696.23	0.000455317
696.46	0.00119732
696.7	-0.000893776
696.93	0.000185501
697.17	-0.001770722
697.4	-0.001534607
697.63	0.001298506
697.87	-0.000320416
698.1	-0.001804354
698.34	-0.000151772
698.57	-0.001467205
698.8	0.000252958
699.04	5.05917E-05
699.27	0.000455317
699.51	0.001231049
699.74	0.001500837
699.97	0.001332235
700.21	0.002748813
700.44	0.000320416
700.68	-0.000320416
700.91	-0.001062419
701.14	0.001770722
701.38	-0.000522774
701.61	-8.4319E-05
701.85	-0.001433435
702.08	-0.000118046
702.32	0.000421588
702.55	0.00021923
702.78	-0.001062419
703.02	-0.001062419
703.25	-0.000657689
703.49	0.001062419
703.72	-0.000354144
703.96	-0.000994962
704.19	-0.001096148
704.42	0.000522774
704.66	0.002074239
704.89	0.00119732
705.13	-0.001163592
705.36	-0.000252958
705.6	-0.001467205
705.83	-0.000387859
706.06	0.000286687
706.3	0.0025801
706.53	-0.001028691
706.77	-0.001433435
707	0.000522774
707.24	5.05917E-05
707.47	-0.001871894
707.7	0.001467205
707.94	-0.001298506
708.17	0.000252958
708.41	-0.001298506
708.64	0.000320416
708.88	-1.68643E-05
709.11	-0.001028691
709.35	-0.000725146
709.58	0.002209181
709.81	-0.001804354
710.05	0.000758875
710.28	-0.000522774
710.52	0.000185501
710.75	0.000455317
710.99	-0.000118046
711.22	-0.002478928
711.46	0.002478928
711.69	-0.001804354
711.92	0.000489045
712.16	-0.000860047
712.39	0.001231049
712.63	-0.002984927
712.86	-0.003086099
713.1	0.001500837
713.33	-0.002478928
713.57	-1.68643E-05
713.8	0.001973066
714.04	-0.003288444
714.27	-0.001332235
714.51	-0.001568377
714.74	-0.000657689
714.97	-0.001129877
715.21	0.00021923
715.44	-0.000860047
715.68	0.000961233
715.91	-0.001096148
716.15	0.000725146
716.38	-0.001096148
716.62	0.002242814
716.85	-0.001973066
717.09	0.001534607
717.32	0.000691418
717.56	-0.002546468
717.79	0.000185501
718.03	0.000860047
718.26	-0.001736952
718.5	0.00062396
718.73	-0.001804354
718.97	0.000151772
719.2	8.4319E-05
719.44	5.05917E-05
719.67	0.000590231
719.91	-0.001534607
720.14	-0.000927505
720.37	-0.001433435
720.61	0.001871894
720.84	-0.000118046
721.08	-0.001264778
721.31	0.002006836
721.55	-0.002209181
721.78	-0.00021923
722.02	-0.000252958
722.25	0.000489045
722.49	-0.002141641
722.72	0.001770722
722.96	0.000151772
723.19	-0.000286687
723.43	-0.001871894
723.66	-0.00021923
723.9	0.000961233
724.13	0.000556503
724.37	-0.001939297
724.6	0.000489045
724.84	-0.001871894
725.07	-0.00021923
725.31	-0.00163578
725.54	0.00163578
725.78	-0.001096148
726.01	0.000286687
726.25	0.000758875
726.48	0.002512698
726.72	-0.001770722
726.96	0.003153502
727.19	-0.000118046
727.43	-8.4319E-05
727.66	-5.05917E-05
727.9	0.000556503
728.13	0.001804354
728.37	0.00119732
728.6	0.000387859
728.84	0.000354144
729.07	-0.00079259
729.31	0.000522774
729.54	-0.003760673
729.78	0.001804354
730.01	-0.000691418
730.25	0.001332235
730.48	-0.000893776
730.72	0.001804354
730.95	-0.001838124
731.19	0.001096148
731.42	-1.68643E-05
731.66	-0.000421588
731.89	0.002849985
732.13	0.001500837
732.37	-0.000590231
732.6	0.000421588
732.84	-0.003524559
733.07	-5.05917E-05
733.31	1.68643E-05
733.54	-0.000860047
733.78	-0.001096148
734.01	-0.00021923
734.25	-0.001298506
734.48	-0.002074239
734.72	0.000961233
734.95	-0.003221042
735.19	-0.002276583
735.43	-0.000118046
735.66	-0.000590231
735.9	0.001399665
736.13	-0.002141641
736.37	-0.000252958
736.6	-0.000758875
736.84	0.000927505
737.07	-0.000151772
737.31	0.002310353
737.55	0.000725146
737.78	-0.000691418
738.02	0.001973066
738.25	0.000354144
738.49	-0.001332235
738.72	0.001365964
738.96	-0.002209181
739.19	0.000961233
739.43	-0.001062419
739.67	-0.000860047
739.9	-0.002040469
740.14	-0.000421588
740.37	-0.001264778
740.61	0.001399665
740.84	-0.000758875
741.08	0.000860047
741.31	-0.002175411
741.55	0.000893776
741.79	-0.000556503
742.02	0.001568377
742.26	-0.001669549
742.49	0.000185501
742.73	-0.001905664
742.96	-0.000320416
743.2	-0.000455317
743.44	0.00163578
743.67	-0.001871894
743.91	0.001838124
744.14	-0.000893776
744.38	-0.00119732
744.61	-1.68643E-05
744.85	0.001500837
745.09	-0.002715043
745.32	0.001433435
745.56	0.000893776
745.79	-0.001804354
746.03	0.000758875
746.27	0.001129877
746.5	0.000860047
746.74	0.000118046
746.97	-0.001298506
747.21	0.000387859
747.44	-0.000455317
747.68	-0.002242814
747.92	-0.000590231
748.15	0.000691418
748.39	-0.001129877
748.62	0.001736952
748.86	0.000387859
749.1	0.002512698
749.33	-8.4319E-05
749.57	8.4319E-05
749.8	-0.000489045
750.04	-0.000860047
750.28	-0.000994962
750.51	0.00079259
750.75	-0.001534607
750.98	0.001028691
751.22	5.05917E-05
751.46	0.000421588
751.69	-0.00062396
751.93	0.000657689
752.16	-0.002040469
752.4	-8.4319E-05
752.64	-0.002074239
752.87	0.001467205
753.11	-0.000522774
753.34	-0.000860047
753.58	-0.002478928
753.82	-0.001264778
754.05	-0.000252958
754.29	-0.001399665
754.53	0.000556503
754.76	-0.000893776
755	0.002546468
755.23	-0.001028691
755.47	0.000151772
755.71	-0.001871894
755.94	-0.00021923
756.18	-0.001399665
756.41	-0.001939297
756.65	-0.000725146
756.89	0.000320416
757.12	0.000252958
757.36	-0.001264778
757.6	-0.000387859
757.83	0.001568377
758.07	0.000185501
758.3	0.001568377
758.54	-0.001332235
758.78	0.001096148
759.01	-0.000522774
759.25	-0.002209181
759.49	0.00021923
759.72	0.000994962
759.96	-0.001804354
760.2	0.000691418
760.43	0.000185501
760.67	0.002074239
760.9	0.001062419
761.14	0.000522774
761.38	0.000185501
761.61	0.001332235
761.85	-0.002984927
762.09	0.001062419
762.32	-0.001669549
762.56	-0.000556503
762.8	-0.001871894
763.03	-0.000927505
763.27	0.001062419
763.5	0.001298506
763.74	-0.001332235
763.98	-0.002276583
764.21	-0.001736952
764.45	0.001568377
764.69	-0.001028691
764.92	0.000421588
765.16	-0.00062396
765.4	-0.000691418
765.63	-0.002748813
765.87	-1.68643E-05
766.11	-0.000118046
766.34	0.00163578
766.58	0.000387859
766.82	-0.000286687
767.05	-0.000252958
767.29	0.000590231
767.53	-0.000252958
767.76	-8.4319E-05
768	-0.001500837
768.24	-0.000961233
768.47	-0.000657689
768.71	0.000354144
768.95	-0.000893776
769.18	0.000691418
769.42	-0.001399665
769.66	0.001939297
769.89	0.000826319
770.13	0.000522774
770.37	-0.002209181
770.6	0.001129877
770.84	-0.001332235
771.08	-0.000725146
771.31	-0.00021923
771.55	0.000522774
771.79	-0.002040469
772.02	0.000522774
772.26	-0.000387859
772.5	0.000185501
772.73	-0.000826319
772.97	0.000185501
773.21	-0.000657689
773.44	1.68643E-05
773.68	-5.05917E-05
773.92	0.000455317
774.15	-0.000252958
774.39	-0.001062419
774.63	0.000657689
774.86	0.000455317
775.1	-0.001669549
775.34	0.000151772
775.57	0.001129877
775.81	0.001231049
776.05	0.000657689
776.29	0.00264764
776.52	-0.000387859
776.76	0.000455317
777	-0.00119732
777.23	-5.05917E-05
777.47	-0.002310353
777.71	0.000151772
777.94	-0.002276583
778.18	-0.00163578
778.42	0.000725146
778.65	-0.000556503
778.89	-0.000893776
779.13	0.000489045
779.37	-0.000994962
779.6	0.000725146
779.84	-0.003119732
780.08	-0.000118046
780.31	-1.68643E-05
780.55	-0.000994962
780.79	0.00079259
781.02	-0.001669549
781.26	-0.000455317
781.5	-0.001028691
781.74	-0.001939297
781.97	-0.001703182
782.21	-0.000151772
782.45	-0.00021923
782.68	-0.000118046
782.92	0.001365964
783.16	0.001905664
783.4	-0.00079259
783.63	-0.000320416
783.87	1.68643E-05
784.11	0.000320416
784.34	0.000320416
784.58	-0.000252958
784.82	0.001062419
785.06	-0.00119732
785.29	0.00119732
785.53	-0.000590231
785.77	-0.000320416
786	-0.000185501
786.24	-0.002917387
786.48	-0.001298506
786.72	0.001703182
786.95	-0.000489045
787.19	-0.001500837
787.43	0.000185501
787.67	-0.002310353
787.9	-0.000758875
788.14	-0.000590231
788.38	-0.000961233
788.61	-0.000590231
788.85	-0.000994962
789.09	0.001804354
789.33	-0.001096148
789.56	-0.000421588
789.8	-0.002141641
790.04	0.000185501
790.28	-0.00079259
790.51	0.001129877
790.75	-0.001332235
790.99	-0.001534607
791.23	-0.000691418
791.46	-0.000725146
791.7	-0.001467205
791.94	0.001129877
792.17	1.68643E-05
792.41	0.001939297
792.65	0.003119732
792.89	-0.00021923
793.12	0.001062419
793.36	-0.00021923
793.6	-0.000657689
793.84	-0.000927505
794.07	-0.000590231
794.31	0.000691418
794.55	0.001298506
794.79	-0.000994962
795.02	0.001500837
795.26	-0.001568377
795.5	-0.000860047
795.74	0.001365964
795.97	-0.002209181
796.21	-0.000286687
796.45	-0.000691418
796.69	0.000320416
796.92	-0.001534607
797.16	0.001433435
797.4	-0.00062396
797.64	0.000320416
797.88	-0.000893776
798.11	-0.001163592
798.35	-0.000590231
798.59	-0.001062419
798.83	-0.001264778
799.06	0.001231049
799.3	-0.004097823
799.54	-0.001669549
799.78	-0.00163578
800.01	0.000118046
800.25	5.05917E-05
800.49	0.001770722
800.73	0.001129877
800.96	-0.000421588
801.2	0.000994962
801.44	0.001028691
801.68	-0.00160201
801.92	0.000118046
802.15	0.000320416
802.39	0.001838124
802.63	-0.002006836
802.87	0.000961233
803.1	-1.68643E-05
803.34	-0.001264778
803.58	5.05917E-05
803.82	-0.000151772
804.06	-0.000590231
804.29	-0.000927505
804.53	0.000758875
804.77	-0.001096148
805.01	-0.000252958
805.24	0.000590231
805.48	-0.000826319
805.72	-0.000961233
805.96	0.00021923
806.2	0.000961233
806.43	-0.002276583
806.67	0.000893776
806.91	-0.000994962
807.15	0.00062396
807.39	-0.002478928
807.62	0.001129877
807.86	-0.00079259
808.1	0.000421588
808.34	-0.000826319
808.58	0.0025801
808.81	0.000893776
809.05	0.000691418
809.29	-0.002344123
809.53	-0.00079259
809.76	-0.000927505
810	0.000893776
810.24	-0.000455317
810.48	0.000860047
810.72	-0.003423386
810.95	-0.001399665
811.19	-0.001669549
811.43	0.001298506
811.67	0.001298506
811.91	0.001871894
812.15	-0.000860047
812.38	0.000826319
812.62	0.000893776
812.86	-0.001500837
813.1	0.001096148
813.34	-0.000860047
813.57	-0.002209181
813.81	0.000421588
814.05	0.000387859
814.29	-0.000387859
814.53	0.002546468
814.76	-0.002917387
815	-0.000151772
815.24	0.001433435
815.48	-0.000252958
815.72	-0.001298506
815.95	0.000590231
816.19	-0.00119732
816.43	0.000860047
816.67	0.00021923
816.91	-0.000522774
817.15	-0.002141641
817.38	0.000556503
817.62	-0.00021923
817.86	0.00021923
818.1	-0.002209181
818.34	0.001939297
818.58	-0.000725146
818.81	0.001129877
819.05	-0.003221042
819.29	0.000657689
819.53	-0.001500837
819.77	-0.000455317
820	-0.00305233
820.24	-0.000961233
820.48	-0.000421588
820.72	-0.000994962
820.96	-0.000118046
821.2	-0.000455317
821.43	-0.002715043
821.67	-0.00021923
821.91	-0.001500837
822.15	0.000590231
822.39	-0.002310353
822.63	0.001399665
822.86	8.4319E-05
823.1	-0.000185501
823.34	-0.001871894
823.58	-0.000994962
823.82	0.000657689
824.06	0.00163578
824.3	-0.000893776
824.53	0.001365964
824.77	-0.000758875
825.01	0.000489045
825.25	-0.000893776
825.49	1.68643E-05
825.73	5.05917E-05
825.96	-0.000320416
826.2	-0.00119732
826.44	-0.000725146
826.68	-0.000657689
826.92	-5.05917E-05
827.16	-0.000354144
827.4	0.002175411
827.63	0.001568377
827.87	-0.001028691
828.11	-0.002445296
828.35	0.000994962
828.59	-0.002242814
828.83	0.00163578
829.07	-0.000893776
829.3	-0.002310353
829.54	-0.000455317
829.78	0.000590231
830.02	-0.002917387
830.26	0.000489045
830.5	-0.001365964
830.74	-0.000860047
830.97	0.000691418
831.21	5.05917E-05
831.45	-0.000758875
831.69	0.001129877
831.93	0.000118046
832.17	-0.001736952
832.41	-0.00119732
832.64	0.000725146
832.88	-0.000118046
833.12	0.000151772
833.36	0.000489045
833.6	-1.68643E-05
833.84	-0.000252958
834.08	0.000421588
834.32	-0.000354144
834.55	-0.001669549
834.79	-0.001096148
835.03	-8.4319E-05
835.27	-0.000489045
835.51	0.002276583
835.75	-0.000994962
835.99	-0.000691418
836.23	-0.000286687
836.46	0.00079259
836.7	-0.001500837
836.94	-0.000927505
837.18	-0.001433435
837.42	-0.00079259
837.66	-0.002040469
837.9	-0.00163578
838.14	-0.000860047
838.38	0.001365964
838.61	0.000893776
838.85	-0.000489045
839.09	-0.001669549
839.33	-0.000590231
839.57	-0.000387859
839.81	0.001298506
840.05	0.000421588
840.29	0.000725146
840.52	-0.002478928
840.76	-0.001669549
841	-0.001062419
841.24	0.000286687
841.48	-0.000860047
841.72	0.001264778
841.96	-0.001298506
842.2	0.001096148
842.44	-0.001838124
842.68	0.00119732
842.91	0.000118046
843.15	0.00160201
843.39	-0.000522774
843.63	0.000118046
843.87	0.001062419
844.11	-0.000657689
844.35	-0.000286687
844.59	0.000556503
844.83	-0.001129877
845.07	0.000691418
845.3	-0.001905664
845.54	-0.000387859
845.78	0.002242814
846.02	-0.000927505
846.26	-0.000455317
846.5	-0.000657689
846.74	-0.002782582
846.98	0.00160201
847.22	-0.000455317
847.46	-0.000961233
847.7	-0.000758875
847.93	-0.000927505
848.17	-0.000354144
848.41	-0.001264778
848.65	-0.001871894
848.89	0.001500837
849.13	-0.000387859
849.37	0.00119732
849.61	-0.000826319
849.85	-0.001770722
850.09	-0.002377756
850.33	0.00264764
850.57	0.001231049
850.8	0.000657689
851.04	-0.000118046
851.28	0.000590231
851.52	-0.002040469
851.76	-0.000657689
852	-0.002141641
852.24	0.000252958
852.48	-0.000860047
852.72	-0.002141641
852.96	0.000151772
853.2	-0.000151772
853.44	-0.000826319
853.68	0.001028691
853.91	-0.000286687
854.15	-0.001804354
854.39	-0.00160201
854.63	0.000725146
854.87	-0.000489045
855.11	-0.001163592
855.35	-0.002040469
855.59	0.000860047
855.83	-0.000522774
856.07	0.001332235
856.31	0.000455317
856.55	0.003693133
856.79	-0.000725146
857.03	0.001568377
857.27	-0.00079259
857.5	0.00079259
857.74	-0.001332235
857.98	-0.000252958
858.22	-0.002006836
858.46	0.001163592
858.7	-0.000725146
858.94	-0.001568377
859.18	0.001568377
859.42	-0.000556503
859.66	-0.000252958
859.9	-0.000252958
860.14	-0.000522774
860.38	-0.00119732
860.62	-0.002546468
860.86	0.00021923
861.1	-0.000522774
861.34	5.05917E-05
861.58	-5.05917E-05
861.81	0.001500837
862.05	-0.000758875
862.29	-1.68643E-05
862.53	-0.000455317
862.77	0.00062396
863.01	-0.000657689
863.25	0.00163578
863.49	0.001770722
863.73	-0.000387859
863.97	-0.002276583
864.21	0.002074239
864.45	-0.00079259
864.69	0.001264778
864.93	-0.001231049
865.17	0.001163592
865.41	-0.002748813
865.65	-8.4319E-05
865.89	0.000590231
866.13	0.000522774
866.37	-0.000758875
866.61	0.002310353
866.85	-0.001163592
867.09	0.00163578
867.32	-0.001703182
867.56	-0.001770722
867.8	-0.000725146
868.04	0.001231049
868.28	-0.001500837
868.52	0.002108009
868.76	-0.001399665
869	0.001568377
869.24	-0.001905664
869.48	0.000691418
869.72	-0.000590231
869.96	-0.00079259
870.2	-0.001433435
870.44	0.000421588
870.68	-0.001871894
870.92	0.000657689
871.16	-0.001467205
871.4	0.000118046
871.64	0.002006836
871.88	0.000725146
872.12	-0.000185501
872.36	-0.000387859
872.6	-0.001973066
872.84	0.001838124
873.08	0.001096148
873.32	0.003625731
873.56	-0.001770722
873.8	-0.001163592
874.04	-0.001028691
874.28	5.05917E-05
874.52	-0.000489045
874.76	0.00021923
875	0.00079259
875.24	-0.000860047
875.48	0.000387859
875.72	0.00062396
875.96	-0.00021923
876.2	-0.001298506
876.44	0.001332235
876.68	-0.000185501
876.92	-0.000354144
877.16	0.000455317
877.4	-0.002276583
877.64	-0.000354144
877.88	-0.000421588
878.12	-8.4319E-05
878.36	-0.001298506
878.6	-5.05917E-05
878.84	-0.001703182
879.08	0.000994962
879.32	-0.000691418
879.56	-0.00119732
879.8	0.002377756
880.04	0.001028691
880.28	0.000151772
880.52	0.000354144
880.76	-0.000522774
881	-0.003086099
881.24	-0.000522774
881.48	-0.000994962
881.72	-0.001399665
881.96	-0.001905664
882.2	0.00079259
882.44	0.000421588
882.68	0.002242814
882.92	0.001703182
883.16	0.000387859
883.4	0.00079259
883.64	0.000725146
883.88	-0.002984927
884.12	0.001332235
884.36	-0.002951157
884.6	0.001264778
884.84	0.000455317
885.08	0.000286687
885.32	0.000151772
885.56	-0.000590231
885.8	-8.4319E-05
886.04	0.000387859
886.28	-0.002816215
886.52	0.000893776
886.76	-0.000151772
887	-0.001332235
887.24	-0.000455317
887.48	0.000252958
887.72	-0.000320416
887.96	-0.00160201
888.2	-0.00062396
888.44	0.00021923
888.68	-5.05917E-05
888.92	0.001804354
889.16	-0.002141641
889.4	-0.001129877
889.64	-0.00163578
889.88	0.000455317
890.12	-0.000893776
890.36	-0.000252958
890.6	8.4319E-05
890.84	-0.001467205
891.08	-0.001433435
891.32	0.00163578
891.56	0.000118046
891.8	0.000522774
892.04	-0.001433435
892.28	0.00119732
892.52	-0.001568377
892.76	-1.68643E-05
893	-0.002310353
893.24	-0.000590231
893.48	-0.00079259
893.73	-0.00079259
893.97	-0.002006836
894.21	-5.05917E-05
894.45	-0.000320416
894.69	-0.000826319
894.93	5.05917E-05
895.17	0.000320416
895.41	-0.000455317
895.65	0.001231049
895.89	-0.000758875
896.13	-0.001500837
896.37	0.000691418
896.61	0.001703182
896.85	-0.001365964
897.09	-0.001129877
897.33	0.00119732
897.57	0.00163578
897.81	-0.001096148
898.05	0.000421588
898.29	-0.000657689
898.53	0.000252958
898.77	0.000354144
899.01	0.000860047
899.25	0.001736952
899.5	-0.000927505
899.74	-0.00062396
899.98	0.001332235
900.22	-0.000489045
900.46	-0.000961233
900.7	-0.001871894
900.94	0.000725146
901.18	0.000320416
901.42	0.002344123
901.66	-0.002074239
901.9	0.001500837
902.14	-0.000860047
902.38	0.001332235
902.62	-0.001399665
902.86	-0.001062419
903.1	-0.000455317
903.34	0.001062419
903.58	-0.000961233
903.82	0.001231049
904.07	0.000185501
904.31	-0.002074239
904.55	0.000320416
904.79	0.001399665
905.03	0.000657689
905.27	0.000893776
905.51	-0.000826319
905.75	-0.001433435
905.99	0.000725146
906.23	0.000725146
906.47	-0.000252958
906.71	-1.68643E-05
906.95	0.000387859
907.19	0.000927505
907.43	-0.001399665
907.68	-0.00079259
907.92	-0.000860047
908.16	-0.000556503
908.4	-0.000758875
908.64	-0.000286687
908.88	0.000725146
909.12	-0.00301856
909.36	0.000354144
909.6	0.001770722
909.84	0.000421588
910.08	0.001365964
910.32	-0.00261387
910.56	0.00264764
910.8	-1.68643E-05
911.05	0.000118046
911.29	0.001096148
911.53	0.001500837
911.77	-0.000691418
912.01	0.000725146
912.25	-0.001433435
912.49	-0.000387859
912.73	-0.001365964
912.97	-0.001231049
913.21	-0.001399665
913.45	1.68643E-05
913.69	-0.001096148
913.93	0.001096148
914.18	0.000556503
914.42	0.000286687
914.66	0.000286687
914.9	0.000151772
915.14	0.00062396
915.38	5.05917E-05
915.62	-0.002445296
915.86	0.000657689
916.1	-0.001736952
916.34	1.68643E-05
916.58	-0.000994962
916.83	-0.000691418
917.07	-0.001905664
917.31	0.00062396
917.55	0.000556503
917.79	0.002141641
918.03	8.4319E-05
918.27	0.001028691
918.51	-0.00160201
918.75	-0.000994962
918.99	-8.4319E-05
919.23	-0.00062396
919.48	-0.000320416
919.72	0.001905664
919.96	-0.001298506
920.2	-0.000151772
920.44	-0.000286687
920.68	1.68643E-05
920.92	0.000151772
921.16	0.000893776
921.4	-0.001231049
921.64	0.000489045
921.89	-0.001028691
922.13	-0.000286687
922.37	-0.001231049
922.61	-0.000994962
922.85	-0.002951157
923.09	-0.001804354
923.33	-0.000489045
923.57	0.001534607
923.81	-0.001231049
924.05	-0.000387859
924.3	0.000489045
924.54	0.000286687
924.78	-0.000320416
925.02	-0.000252958
925.26	0.000826319
925.5	0.000860047
925.74	0.001399665
925.98	0.001062419
926.22	-0.001264778
926.47	-0.001500837
926.71	-0.000556503
926.95	0.001467205
927.19	-0.000590231
927.43	0.001736952
927.67	-0.001163592
927.91	-0.001399665
928.15	-0.00163578
928.4	0.001231049
928.64	-0.000691418
928.88	0.002816215
929.12	-0.001096148
929.36	0.000489045
929.6	0.000252958
929.84	0.00062396
930.08	-0.001467205
930.32	0.000826319
930.57	-0.000758875
930.81	-0.001264778
931.05	-0.000758875
931.29	0.000994962
931.53	8.4319E-05
931.77	0.001231049
932.01	-0.000489045
932.25	0.001770722
932.5	0.001669549
932.74	0.001433435
932.98	8.4319E-05
933.22	-0.000657689
933.46	-0.000725146
933.7	-0.000489045
933.94	-0.000118046
934.18	0.000961233
934.43	0.001736952
934.67	-0.000286687
934.91	-8.4319E-05
935.15	0.00062396
935.39	0.001096148
935.63	-0.001062419
935.87	-0.000927505
936.12	-0.000556503
936.36	-0.00119732
936.6	0.001467205
936.84	-0.001062419
937.08	0.00021923
937.32	0.000252958
937.56	0.000489045
937.8	0.000354144
938.05	0.001332235
938.29	-0.000320416
938.53	1.68643E-05
938.77	-0.00062396
939.01	-0.001433435
939.25	-0.000657689
939.49	-0.00021923
939.74	-0.000320416
939.98	0.000758875
940.22	-0.000657689
940.46	0.001433435
940.7	0.000286687
940.94	-0.000860047
941.18	0.00021923
941.43	-0.000758875
941.67	0.000185501
941.91	-0.001264778
942.15	0.000590231
942.39	8.4319E-05
942.63	0.000860047
942.87	-0.000994962
943.12	0.001399665
943.36	-0.000860047
943.6	0.00021923
943.84	-0.003119732
944.08	-0.00021923
944.32	-0.002883755
944.57	-0.002917387
944.81	-0.001264778
945.05	-0.000455317
945.29	-0.001703182
945.53	0.000151772
945.77	5.05917E-05
946.01	0.001804354
946.26	-0.002546468
946.5	0.002512698
946.74	-0.000387859
946.98	8.4319E-05
947.22	-0.001804354
947.46	-0.000691418
947.71	-0.001365964
947.95	0.000961233
948.19	-0.002276583
948.43	0.001028691
948.67	0.000421588
948.91	0.000151772
949.16	0.001804354
949.4	-0.000421588
949.64	-0.002512698
949.88	0.000421588
950.12	0.000286687
950.36	0.001028691
950.61	0.00021923
950.85	-0.000387859
951.09	-0.00021923
951.33	-0.000286687
951.57	-5.05917E-05
951.81	0.001736952
952.06	-0.001096148
952.3	-0.000522774
952.54	-0.000286687
952.78	0.000556503
953.02	-0.001096148
953.26	5.05917E-05
953.51	-0.001534607
953.75	0.000118046
953.99	-0.000118046
954.23	-0.000455317
954.47	-0.000758875
954.71	-0.000286687
954.96	0.000151772
955.2	-0.000185501
955.44	-0.000421588
955.68	0.001467205
955.92	-0.001939297
956.16	0.000691418
956.41	0.000387859
956.65	-0.001129877
956.89	-0.002917387
957.13	0.00079259
957.37	-0.000725146
957.62	0.002917387
957.86	0.001736952
958.1	0.001365964
958.34	-0.001534607
958.58	0.000320416
958.82	-0.00021923
959.07	-0.000927505
959.31	0.000961233
959.55	0.001500837
959.79	-0.000961233
960.03	0.001231049
960.28	-5.05917E-05
960.52	0.000354144
960.76	-0.000354144
961	0.000590231
961.24	-0.000927505
961.48	0.002411526
961.73	-0.001264778
961.97	0.000657689
962.21	-0.00119732
962.45	-0.000286687
962.69	-8.4319E-05
962.94	-0.000994962
963.18	-0.001129877
963.42	0.001534607
963.66	-0.000320416
963.9	-0.000151772
964.15	-0.001433435
964.39	0.001332235
964.63	-0.000994962
964.87	-0.001669549
965.11	-0.000556503
965.36	0.001399665
965.6	-0.001062419
965.84	-0.000927505
966.08	-0.001365964
966.32	-0.000556503
966.57	0.000725146
966.81	-0.000725146
967.05	-0.001264778
967.29	0.000860047
967.53	0.000387859
967.77	-0.001332235
968.02	0.00062396
968.26	0.001298506
968.5	-0.000252958
968.74	1.68643E-05
968.99	-0.000522774
969.23	0.002715043
969.47	-0.002006836
969.71	-0.000185501
969.95	-0.000590231
970.2	-0.000657689
970.44	-0.000725146
970.68	-0.001905664
970.92	-0.000286687
971.16	0.000252958
971.41	-0.000320416
971.65	-0.000252958
971.89	0.001096148
972.13	-0.000320416
972.37	0.001332235
972.62	0.000927505
972.86	-0.001568377
973.1	-0.001028691
973.34	-0.002242814
973.58	0.000860047
973.83	0.000252958
974.07	-0.000320416
974.31	-0.00261387
974.55	0.000185501
974.8	-0.000826319
975.04	0.001231049
975.28	0.000354144
975.52	0.000455317
975.76	-0.000590231
976.01	0.000657689
976.25	0.000691418
976.49	-0.000522774
976.73	-0.000185501
976.97	-0.001838124
977.22	-0.001129877
977.46	0.001433435
977.7	-0.001264778
977.94	0.000151772
978.19	-0.001264778
978.43	0.000455317
978.67	-0.000489045
978.91	0.001129877
979.15	0.000961233
979.4	-0.000927505
979.64	5.05917E-05
979.88	0.001062419
980.12	-0.000455317
980.37	-0.001736952
980.61	0.00021923
980.85	0.001669549
981.09	-0.000691418
981.33	0.000994962
981.58	-0.001770722
981.82	0.001163592
982.06	-0.000893776
982.3	-0.000320416
982.55	0.00079259
982.79	-0.000185501
983.03	-0.00079259
983.27	0.00021923
983.52	-0.002040469
983.76	-0.000118046
984	0.001129877
984.24	0.000725146
984.48	-0.001231049
984.73	-0.001703182
984.97	8.4319E-05
985.21	0.003423386
985.45	-0.001871894
985.7	-0.001365964
985.94	-0.002242814
986.18	0.001838124
986.42	0.000455317
986.67	0.000556503
986.91	-0.002276583
987.15	-0.001365964
987.39	-0.002748813
987.63	0.000320416
987.88	-0.001332235
988.12	5.05917E-05
988.36	0.001129877
988.6	0.000354144
988.85	-0.002006836
989.09	0.002782582
989.33	-0.001163592
989.57	0.00062396
989.82	0.000286687
990.06	0.001669549
990.3	-0.002006836
990.54	0.000151772
990.79	-0.000522774
991.03	-0.000286687
991.27	-0.000590231
991.51	-0.000455317
991.76	-0.002074239
992	0.000421588
992.24	-0.000590231
992.48	0.000691418
992.73	-0.000455317
992.97	-0.001669549
993.21	-0.000185501
993.45	-0.001298506
993.7	0.001568377
993.94	0.000421588
994.18	-0.000556503
994.42	0.001332235
994.67	0.000826319
994.91	0.00021923
995.15	-0.000387859
995.39	-0.00021923
995.64	0.001028691
995.88	-0.00062396
996.12	-0.000286687
996.36	0.000522774
996.61	-0.001534607
996.85	-0.000118046
997.09	0.000691418
997.33	-0.00160201
997.58	0.001096148
997.82	0.001534607
998.06	-0.000421588
998.3	-0.000118046
998.55	-0.002478928
998.79	-0.001467205
999.03	0.001231049
999.27	0.000556503
999.52	-0.00021923
999.76	-0.000725146
1000	0.001871894
1000.2	1.68643E-05
1000.5	0.000556503
1000.7	1.68643E-05
1001	-0.000185501
1001.2	-8.4319E-05
1001.5	0.001804354
1001.7	-0.002681273
1001.9	0.003187272
1002.2	0.000151772
1002.4	1.68643E-05
1002.7	-0.000286687
1002.9	-8.4319E-05
1003.2	-0.002715043
1003.4	0.002276583
1003.6	-0.00079259
1003.9	-0.000961233
1004.1	5.05917E-05
1004.4	0.000893776
1004.6	0.00062396
1004.9	0.001703182
1005.1	-0.000320416
1005.3	0.000725146
1005.6	0.000691418
1005.8	-0.001028691
1006.1	-0.00119732
1006.3	0.00163578
1006.6	-0.002478928
1006.8	1.68643E-05
1007	-0.000387859
1007.3	0.000826319
1007.5	-0.002546468
1007.8	0.000151772
1008	8.4319E-05
1008.3	8.4319E-05
1008.5	-0.001062419
1008.7	0.000320416
1009	0.000522774
1009.2	0.000860047
1009.5	0.001062419
1009.7	0.000927505
1010	-0.000860047
1010.2	0.000421588
1010.4	0.001028691
1010.7	-0.000320416
1010.9	0.000455317
1011.2	0.001163592
1011.4	0.000118046
1011.7	-0.001433435
1011.9	1.68643E-05
1012.1	0.00021923
1012.4	-0.000118046
1012.6	0.000860047
1012.9	0.000387859
1013.1	0.002141641
1013.4	5.05917E-05
1013.6	-0.000185501
1013.8	0.000691418
1014.1	0.000556503
1014.3	0.000961233
1014.6	0.001231049
1014.8	0.000826319
1015.1	-0.002242814
1015.3	-0.001163592
1015.5	0.003322214
1015.8	0.00062396
1016	0.001534607
1016.3	0.00021923
1016.5	0.000860047
1016.8	-0.002951157
1017	0.000826319
1017.2	0.000286687
1017.5	-0.001028691
1017.7	0.003221042
1018	-0.001433435
1018.2	-0.00062396
1018.5	0.001264778
1018.7	-0.000927505
1018.9	0.002512698
1019.2	-0.000961233
1019.4	-8.4319E-05
1019.7	0.001433435
1019.9	0.000354144
1020.2	-5.05917E-05
1020.4	1.68643E-05
1020.6	-0.000927505
1020.9	0.001028691
1021.1	-0.001736952
1021.4	0.000151772
1021.6	-0.001905664
1021.9	0.000286687