WAVELENGTH	NORM_INTENSITY
194.11	0.001083646
194.31	-0.000931926
194.52	0.000661018
194.72	-0.000671862
194.92	-0.000899421
195.12	0.000661018
195.33	-0.000574334
195.53	-0.001159499
195.73	0.001441251
195.93	-0.002719912
196.13	0.000335931
196.34	-0.001777129
196.54	0.001993872
196.74	-0.002622438
196.94	-0.000281752
197.15	-0.003272533
197.35	-0.000704367
197.55	-0.000151706
197.75	-0.000639344
197.96	0.000173381
198.16	0.001668824
198.36	-0.000769389
198.56	0.001636332
198.76	-0.000151706
198.97	-0.000476807
199.17	-0.002524831
199.37	0.001018623
199.57	-0.001907227
199.78	-0.000639344
199.98	-0.001517065
200.18	0.000335931
200.39	-0.000346761
200.59	-0.001061972
200.79	-0.001159499
200.99	0.002871672
201.2	0.001441251
201.4	0.000530986
201.6	-0.00197221
201.8	0.002709082
202.01	0.000335931
202.21	0.000791064
202.41	4.33458E-05
202.62	-0.000639344
202.82	-0.000996949
203.02	0.000563491
203.22	-0.000996949
203.43	-0.001224509
203.63	-0.001939719
203.83	-0.000964444
204.04	-0.000704367
204.24	0.001441251
204.44	-0.000736871
204.64	-0.000671862
204.85	-0.002037194
205.05	-0.000574334
205.25	-0.003597712
205.46	0.000726041
205.66	-0.001126981
205.86	0.001441251
206.07	-0.001387098
206.27	0.000888591
206.47	-0.000899421
206.68	-0.001029454
206.88	-0.001387098
207.08	-0.002784895
207.29	-0.001289531
207.49	-0.000184224
207.69	-0.001939719
207.89	-2.16729E-05
208.1	-0.000996949
208.3	-0.001029454
208.5	-0.002167292
208.71	0.001148655
208.91	-0.000249234
209.12	0.000205885
209.32	-0.000736871
209.52	0.002253936
209.73	-5.41816E-05
209.93	-0.002167292
210.13	0.000498468
210.34	0.000628513
210.54	-0.002167292
210.74	0.001538726
210.95	-0.001061972
211.15	0.001701316
211.35	0.000335931
211.56	-5.41816E-05
211.76	-0.000509312
211.96	0.000823568
212.17	-0.00158218
212.37	0.001473743
212.58	-0.001192004
212.78	0.000303413
212.98	-0.000996949
213.19	-0.000476807
213.39	-0.001224509
213.59	-0.000281752
213.8	-0.000509312
214	-0.001224509
214.21	-0.00141959
214.41	-0.000964444
214.61	0.000921096
214.82	-0.001452082
215.02	-0.002232275
215.23	-0.000541816
215.43	-0.000151706
215.63	-5.41816E-05
215.84	0.00040094
216.04	0.003359309
216.25	-0.001257027
216.45	0.000433458
216.65	-0.000866917
216.86	-0.001809621
217.06	-0.001809621
217.27	-0.000216729
217.47	-0.001354607
217.67	0.000433458
217.88	-0.000379279
218.08	0.000823568
218.29	-0.001224509
218.49	-2.16729E-05
218.7	0.001733807
218.9	-0.000574334
219.1	0.000791064
219.31	-0.000801894
219.51	-0.002232275
219.72	-0.000346761
219.92	-0.001126981
220.13	0.001928888
220.33	-0.001354607
220.53	-0.000379279
220.74	-0.001094476
220.94	-0.001061972
221.15	-0.001647163
221.35	0.000108365
221.56	-0.000606839
221.76	-0.000671862
221.97	-0.002719912
222.17	-0.000249234
222.38	-0.000671862
222.58	-0.002102309
222.78	-0.000996949
222.99	0.000140876
223.19	-0.001777129
223.4	0.000661018
223.6	-0.000379279
223.81	0.001246183
224.01	-0.000444289
224.22	-0.002427356
224.42	-0.000541816
224.63	-0.002492339
224.83	-0.00158218
225.04	-0.000444289
225.24	-0.001029454
225.45	0.001116151
225.65	-0.001029454
225.86	1.08365E-05
226.06	-0.000671862
226.27	-0.000249234
226.47	0.001051128
226.68	-0.002199783
226.88	-0.000996949
227.09	-0.001647163
227.29	-0.000639344
227.5	-0.001647163
227.7	-0.000671862
227.91	0.000335931
228.11	-0.000216729
228.32	-0.000736871
228.52	-0.000346761
228.73	0.000758546
228.93	-0.003045092
229.14	-0.000606839
229.34	0.001246183
229.55	0.000661018
229.75	-5.41816E-05
229.96	0.000108365
230.16	-0.001321983
230.37	-0.000379279
230.57	-0.000216729
230.78	0.001116151
230.98	0.00179879
231.19	0.000693536
231.39	-0.000866917
231.6	0.000596009
231.81	-0.000834399
232.01	-0.000834399
232.22	-0.001777129
232.42	-0.001159499
232.63	-0.003825285
232.83	-0.000379279
233.04	-0.002102309
233.24	0.003001638
233.45	0.000303413
233.65	0.001571217
233.86	-0.002719912
234.07	0.000368436
234.27	0.000205885
234.48	0.0009536
234.68	1.08365E-05
234.89	-0.000151706
235.09	-0.000346761
235.3	0.000661018
235.51	-0.000801894
235.71	0.002188953
235.92	-0.002817519
236.12	-0.000736871
236.33	-0.000184224
236.53	0.000465963
236.74	-0.000249234
236.95	-0.000736871
237.15	-0.001679654
237.36	-0.001387098
237.56	-0.000216729
237.77	-0.000931926
237.98	-0.002492339
238.18	-0.001061972
238.39	-0.000606839
238.59	0.00140876
238.8	0.00179879
239.01	0.000888591
239.21	0.000628513
239.42	-0.001517065
239.62	-0.000899421
239.83	0.000628513
240.04	-0.002004702
240.24	-0.00141959
240.45	-0.001712146
240.65	-0.001094476
240.86	-0.000671862
241.07	-0.000736871
241.27	-0.000834399
241.48	0.000205885
241.69	-0.000931926
241.89	-0.001289531
242.1	-0.000671862
242.3	0.001246183
242.51	-0.001842244
242.72	-0.001257027
242.92	-0.002167292
243.13	0.000628513
243.34	-0.001321983
243.54	0.001213678
243.75	0.000661018
243.96	-0.001224509
244.16	-0.002492339
244.37	-0.001614671
244.58	-0.000379279
244.78	0.000530986
244.99	-0.000509312
245.19	0.000661018
245.4	-0.002459848
245.61	-0.002947485
245.81	-0.003175058
246.02	-0.000541816
246.23	7.58546E-05
246.43	-0.000606839
246.64	-0.001452082
246.85	0.001018623
247.05	-0.004020367
247.26	0.001311206
247.47	-0.000184224
247.67	-0.000704367
247.88	1.08365E-05
248.09	0.000596009
248.3	-0.001744638
248.5	0.001993872
248.71	-0.001939719
248.92	0.000433458
249.12	-5.41816E-05
249.33	0.000368436
249.54	-0.001094476
249.74	0.000628513
249.95	-0.001939719
250.16	-0.0001192
250.36	-0.002297258
250.57	0.000888591
250.78	-0.001679654
250.99	-0.001387098
251.19	-0.001842244
251.4	0.00196138
251.61	-0.000346761
251.81	0.00179879
252.02	-0.001159499
252.23	0.001993872
252.44	0.001213678
252.64	0.000173381
252.85	0.000270908
253.06	-0.000184224
253.26	-0.001614671
253.47	0.000433458
253.68	-0.001647163
253.89	-0.000574334
254.09	-0.0021348
254.3	-0.000606839
254.51	-2.16729E-05
254.72	0.001668824
254.92	-0.001029454
255.13	0.001018623
255.34	-0.001712146
255.54	-0.000639344
255.75	0.001863905
255.96	0.000238403
256.17	-0.000541816
256.37	0.001571217
256.58	1.08365E-05
256.79	0.001018623
257	0.001018623
257.2	0.0009536
257.41	-0.001224509
257.62	0.001343776
257.83	-0.000574334
258.04	-0.000866917
258.24	0.000303413
258.45	-0.000574334
258.66	0.000433458
258.87	0.001831414
259.07	-0.000704367
259.28	-0.00197221
259.49	-0.002004702
259.7	-0.000249234
259.9	-0.000314257
260.11	-0.001647163
260.32	-0.000509312
260.53	-2.16729E-05
260.74	-0.000801894
260.94	-0.000899421
261.15	-0.001809621
261.36	0.000986118
261.57	-0.00197221
261.78	0.000238403
261.98	0.000693536
262.19	0.000108365
262.4	-0.002362373
262.61	-0.000184224
262.82	-0.001777129
263.02	-0.000411784
263.23	-0.001452082
263.44	0.002481509
263.65	-0.000801894
263.86	7.58546E-05
264.06	-5.41816E-05
264.27	0.000823568
264.48	-0.000346761
264.69	-0.000476807
264.9	0.001116151
265.11	0.00212397
265.31	0.000303413
265.52	-0.001126981
265.73	-0.00158218
265.94	0.000108365
266.15	0.000823568
266.35	0.000140876
266.56	-0.003142567
266.77	-8.66917E-05
266.98	0.000173381
267.19	-0.000151706
267.4	-0.001257027
267.61	-0.000249234
267.81	-0.002297258
268.02	-0.0001192
268.23	-0.000834399
268.44	0.001051128
268.65	-0.000899421
268.86	0.001701316
269.06	-0.00141959
269.27	0.001343776
269.48	-0.001354607
269.69	0.000986118
269.9	-0.001126981
270.11	-0.001452082
270.32	-0.002557455
270.52	0.001376268
270.73	-0.001387098
270.94	-0.001289531
271.15	-0.000704367
271.36	-0.000606839
271.57	0.000173381
271.78	4.33458E-05
271.99	0.000270908
272.19	0.001506234
272.4	-0.000899421
272.61	0.000986118
272.82	-0.000639344
273.03	-0.00158218
273.24	-5.41816E-05
273.45	0.001083646
273.66	-0.000184224
273.87	-0.000281752
274.07	-0.001809621
274.28	0.000596009
274.49	-0.000704367
274.7	-0.000964444
274.91	0.000563491
275.12	-0.001192004
275.33	-0.002362373
275.54	0.000238403
275.75	-0.002329882
275.96	-0.000801894
276.17	-0.001484573
276.37	-0.000249234
276.58	-0.001094476
276.79	-0.000996949
277	-0.001029454
277.21	-0.001679654
277.42	-0.001842244
277.63	0.000726041
277.84	0.001603841
278.05	0.000530986
278.26	4.33458E-05
278.47	0.000498468
278.68	0.000986118
278.89	0.001181173
279.09	-0.000834399
279.3	0.001343776
279.51	0.002449017
279.72	0.000693536
279.93	-0.00197221
280.14	0.000758546
280.35	0.000726041
280.56	0.001343776
280.77	0.0009536
280.98	-0.000574334
281.19	-0.000606839
281.4	0.001896397
281.61	-0.004345414
281.82	-0.000249234
282.03	0.000661018
282.24	-0.000281752
282.45	-0.000671862
282.66	0.001246183
282.87	-0.001517065
283.08	0.000335931
283.29	0.000205885
283.5	0.001896397
283.7	-0.002524831
283.91	-0.001094476
284.12	-0.001126981
284.33	-2.16729E-05
284.54	0.000140876
284.75	-0.000736871
284.96	-0.000866917
285.17	0.002188953
285.38	-0.001614671
285.59	-0.000314257
285.8	-0.001809621
286.01	-0.000151706
286.22	-5.41816E-05
286.43	0.000726041
286.64	-0.000736871
286.85	-0.000704367
287.06	-0.001647163
287.27	-0.000736871
287.48	-0.0021348
287.69	0.000270908
287.9	-0.000704367
288.11	0.000270908
288.32	0.001278701
288.53	-0.001159499
288.74	-0.001517065
288.95	0.000921096
289.16	-0.000899421
289.37	0.000758546
289.58	-0.001094476
289.79	-0.001029454
290	-0.000769389
290.21	-0.000931926
290.43	-0.000769389
290.64	0.000661018
290.85	-0.000996949
291.06	-0.001387098
291.27	-0.000444289
291.48	-5.41816E-05
291.69	-0.001517065
291.9	0.000205885
292.11	-0.001452082
292.32	-0.000151706
292.53	-0.000216729
292.74	0.00179879
292.95	-0.000151706
293.16	-0.002979977
293.37	-0.001257027
293.58	-0.002427356
293.79	0.000173381
294	0.001311206
294.21	-0.003142567
294.42	-0.000151706
294.63	0.000596009
294.84	0.001636332
295.06	-0.002199783
295.27	-0.000379279
295.48	-0.000541816
295.69	0.001018623
295.9	0.002026363
296.11	-0.001614671
296.32	0.001993872
296.53	0.001896397
296.74	-0.000574334
296.95	0.001311206
297.16	-0.001842244
297.37	0.000498468
297.58	0.000628513
297.79	-0.000931926
298.01	-0.001549556
298.22	-0.002817519
298.43	0.001083646
298.64	0.0009536
298.85	0.001343776
299.06	-0.000574334
299.27	0.000726041
299.48	0.003196719
299.69	-0.000736871
299.9	-0.000476807
300.12	-0.002329882
300.33	0.000661018
300.54	-0.002037194
300.75	0.000726041
300.96	0.000498468
301.17	0.001148655
301.38	-0.000281752
301.59	4.33458E-05
301.8	-0.000899421
302.02	0.000205885
302.23	-0.000379279
302.44	-0.001354607
302.65	-0.000639344
302.86	-0.000346761
303.07	-0.00141959
303.28	1.08365E-05
303.49	0.000823568
303.71	0.00267659
303.92	-0.001809621
304.13	0.001701316
304.34	0.000921096
304.55	-0.001387098
304.76	-0.002167292
304.97	0.001148655
305.18	-0.000996949
305.4	0.000823568
305.61	-0.003240041
305.82	0.000238403
306.03	-0.001061972
306.24	-0.000704367
306.45	-0.000281752
306.67	0.000693536
306.88	-0.001192004
307.09	0.001701316
307.3	-0.003435123
307.51	-0.000509312
307.72	0.000303413
307.93	1.08365E-05
308.15	-0.000476807
308.36	-0.001614671
308.57	0.000108365
308.78	-5.41816E-05
308.99	-0.000736871
309.21	-2.16729E-05
309.42	1.08365E-05
309.63	-2.16729E-05
309.84	-0.002589946
310.05	-0.000769389
310.26	0.000661018
310.48	0.000596009
310.69	-0.001712146
310.9	0.000596009
311.11	0.001311206
311.32	0.002091478
311.54	-0.002427356
311.75	0.000791064
311.96	0.001766299
312.17	-0.000541816
312.38	-0.000704367
312.6	0.000173381
312.81	-0.000411784
313.02	0.001083646
313.23	-0.001289531
313.44	0.002514
313.66	-0.000476807
313.87	0.002319051
314.08	-0.000996949
314.29	-0.000606839
314.5	-0.0021348
314.72	-5.41816E-05
314.93	-0.000639344
315.14	0.00040094
315.35	-2.16729E-05
315.56	4.33458E-05
315.78	-0.002167292
315.99	-0.001647163
316.2	-0.000346761
316.41	0.000791064
316.63	-0.000964444
316.84	-0.000834399
317.05	0.000205885
317.26	-0.000379279
317.48	0.001181173
317.69	-0.000476807
317.9	-0.000346761
318.11	-0.001874736
318.33	-0.003500106
318.54	-0.000476807
318.75	-0.001614671
318.96	-2.16729E-05
319.17	0.001051128
319.39	0.001863905
319.6	-0.001744638
319.81	0.000628513
320.03	0.001896397
320.24	0.001018623
320.45	-0.000151706
320.66	-0.000281752
320.88	0.000693536
321.09	-0.000151706
321.3	-0.003077583
321.51	-0.000216729
321.73	-0.004540496
321.94	-0.000444289
322.15	-0.000899421
322.36	0.00040094
322.58	-0.002589946
322.79	-0.000379279
323	-0.000769389
323.22	0.00140876
323.43	-0.001257027
323.64	-0.000541816
323.85	-0.001061972
324.07	0.001733807
324.28	-0.002069817
324.49	-8.66917E-05
324.71	-0.002492339
324.92	-0.001159499
325.13	-0.001809621
325.34	7.58546E-05
325.56	-0.000541816
325.77	-0.000639344
325.98	-0.003012468
326.2	0.000693536
326.41	-0.000249234
326.62	-0.000411784
326.84	-0.003987743
327.05	0.000661018
327.26	-0.00158218
327.47	0.000498468
327.69	-0.001029454
327.9	0.001051128
328.11	-0.000444289
328.33	-0.001321983
328.54	-0.000704367
328.75	0.000693536
328.97	-0.001387098
329.18	-0.001387098
329.39	-0.00141959
329.61	0.002091478
329.82	-0.000379279
330.03	-0.000574334
330.25	0.001733807
330.46	0.000368436
330.67	-0.000769389
330.89	0.000498468
331.1	0.001083646
331.31	-0.001029454
331.53	-0.000801894
331.74	0.001538726
331.95	0.001603841
332.17	-0.000216729
332.38	-0.001061972
332.59	0.001733807
332.81	-0.002394865
333.02	0.000205885
333.24	0.000856073
333.45	0.000270908
333.66	-0.000216729
333.88	0.001148655
334.09	-0.000899421
334.3	-0.000216729
334.52	-0.002557455
334.73	0.001278701
334.94	-0.002394865
335.16	-0.000574334
335.37	-0.002232275
335.59	7.58546E-05
335.8	-0.000769389
336.01	0.000726041
336.23	-0.000736871
336.44	7.58546E-05
336.65	0.001083646
336.87	-0.001321983
337.08	0.000856073
337.3	-0.000541816
337.51	1.08365E-05
337.72	0.001181173
337.94	0.000108365
338.15	-0.001257027
338.37	-0.001647163
338.58	0.001083646
338.79	-0.000216729
339.01	0.000108365
339.22	-0.001061972
339.44	0.000498468
339.65	-0.000931926
339.86	0.002058855
340.08	-0.001614671
340.29	-0.001061972
340.51	-0.000866917
340.72	-0.001907227
340.93	-0.003500106
341.15	-0.000216729
341.36	-0.000834399
341.58	-0.000801894
341.79	-0.000184224
342	-0.001094476
342.22	-0.002427356
342.43	-8.66917E-05
342.65	7.58546E-05
342.86	0.000140876
343.08	0.000888591
343.29	0.000661018
343.5	0.000888591
343.72	0.001376268
343.93	-0.001712146
344.15	-0.001452082
344.36	-0.002069817
344.58	-0.000379279
344.79	-0.001094476
345	0.001246183
345.22	0.000140876
345.43	0.000303413
345.65	-0.000249234
345.86	-0.002102309
346.08	0.000693536
346.29	0.000791064
346.51	-0.000769389
346.72	-0.000216729
346.94	-0.002199783
347.15	0.002286428
347.36	-0.002362373
347.58	-0.001614671
347.79	-0.002654929
348.01	0.001181173
348.22	-0.002459848
348.44	-8.66917E-05
348.65	-0.001354607
348.87	0.000791064
349.08	-0.000704367
349.3	0.000823568
349.51	-0.002362373
349.73	0.000661018
349.94	-0.001874736
350.16	0.000856073
350.37	0.001928888
350.59	-0.000899421
350.8	-0.001061972
351.01	0.002351543
351.23	-0.00158218
351.44	-0.000671862
351.66	-0.000151706
351.87	-0.000996949
352.09	-0.000931926
352.3	7.58546E-05
352.52	-0.001257027
352.73	-0.001192004
352.95	-0.001289531
353.16	-0.000639344
353.38	-0.001029454
353.59	-0.000541816
353.81	0.000888591
354.02	-0.000249234
354.24	-0.002362373
354.45	0.00040094
354.67	-0.002037194
354.88	-0.001159499
355.1	0.000986118
355.32	-0.000769389
355.53	-0.000281752
355.75	0.000726041
355.96	-0.002557455
356.18	0.000596009
356.39	0.000596009
356.61	-0.001061972
356.82	-0.001517065
357.04	0.000303413
357.25	-0.000379279
357.47	1.08365E-05
357.68	-0.000899421
357.9	-0.000866917
358.11	-0.001842244
358.33	-0.001126981
358.54	-5.41816E-05
358.76	-0.002102309
358.98	-0.000769389
359.19	-0.000411784
359.41	0.00040094
359.62	-0.003435123
359.84	-0.002947485
360.05	4.33458E-05
360.27	-0.002492339
360.48	-0.001354607
360.7	0.000335931
360.91	0.000173381
361.13	-0.000801894
361.35	0.000986118
361.56	-0.000834399
361.78	-0.001094476
361.99	-0.0021348
362.21	0.000498468
362.42	0.000108365
362.64	-0.001354607
362.86	0.001278701
363.07	0.001116151
363.29	0.000433458
363.5	-0.000671862
363.72	-0.001517065
363.93	4.33458E-05
364.15	-0.001159499
364.37	-0.000151706
364.58	-0.001614671
364.8	0.000465963
365.01	-0.003792794
365.23	0.000596009
365.45	-0.000866917
365.66	0.000888591
365.88	0.000628513
366.09	-0.000574334
366.31	-0.001224509
366.53	0.001018623
366.74	-0.000509312
366.96	-0.000216729
367.17	-0.002784895
367.39	0.000433458
367.61	-0.000249234
367.82	-0.000606839
368.04	-0.000151706
368.25	0.002286428
368.47	0.000270908
368.69	0.000108365
368.9	-0.000216729
369.12	0.000498468
369.33	0.002871672
369.55	0.000498468
369.77	-0.001354607
369.98	0.000303413
370.2	-0.001874736
370.41	-0.000346761
370.63	-0.000996949
370.85	0.000628513
371.06	0.00040094
371.28	-0.000964444
371.5	-0.001712146
371.71	0.0009536
371.93	-0.001094476
372.15	-2.16729E-05
372.36	-0.004735445
372.58	-0.000736871
372.79	-0.001354607
373.01	0.001928888
373.23	-0.002362373
373.44	0.001083646
373.66	0.000758546
373.88	0.000433458
374.09	-0.000346761
374.31	0.001603841
374.53	-0.000541816
374.74	-0.001029454
374.96	-0.000801894
375.18	0.001083646
375.39	-0.002297258
375.61	1.08365E-05
375.83	0.000205885
376.04	-0.000834399
376.26	0.000335931
376.48	0.000693536
376.69	-0.000834399
376.91	-0.000574334
377.13	-0.001224509
377.34	0.001668824
377.56	0.001441251
377.78	-0.000216729
377.99	0.001246183
378.21	0.00040094
378.43	-0.002654929
378.64	7.58546E-05
378.86	-0.001029454
379.08	0.001571217
379.29	-0.000639344
379.51	0.002286428
379.73	0.000108365
379.94	-0.000704367
380.16	-0.001061972
380.38	4.33458E-05
380.6	0.000433458
380.81	0.003196719
381.03	0.001896397
381.25	-0.000931926
381.46	0.000856073
381.68	-0.001517065
381.9	-0.001842244
382.11	-5.41816E-05
382.33	-0.001842244
382.55	-0.001744638
382.77	-0.000606839
382.98	0.000856073
383.2	0.000563491
383.42	7.58546E-05
383.63	0.000238403
383.85	-0.000704367
384.07	-0.000216729
384.29	-0.001517065
384.5	0.001278701
384.72	0.001571217
384.94	-0.000639344
385.15	4.33458E-05
385.37	-0.001257027
385.59	0.002286428
385.81	-0.002427356
386.02	0.001148655
386.24	-0.000996949
386.46	-0.001029454
386.68	0.000986118
386.89	-0.000281752
387.11	-0.001354607
387.33	0.000758546
387.55	0.002709082
387.76	0.000661018
387.98	-0.001029454
388.2	0.001571217
388.42	-0.000964444
388.63	0.00140876
388.85	0.002058855
389.07	-0.00158218
389.29	-0.002102309
389.5	0.001278701
389.72	0.001051128
389.94	0.00140876
390.16	0.000986118
390.37	-0.000606839
390.59	-0.000444289
390.81	0.000108365
391.03	-0.001517065
391.24	0.002579116
391.46	-0.001452082
391.68	-0.000184224
391.9	-8.66917E-05
392.11	0.002091478
392.33	-0.001842244
392.55	0.000628513
392.77	-0.000931926
392.99	-0.001224509
393.2	-0.000541816
393.42	-0.000736871
393.64	-0.001907227
393.86	0.003424292
394.07	-0.001809621
394.29	0.001928888
394.51	7.58546E-05
394.73	-0.002492339
394.95	-0.002329882
395.16	0.000270908
395.38	-0.000931926
395.6	0.000888591
395.82	-0.000866917
396.04	0.000888591
396.25	0.000465963
396.47	0.002579116
396.69	-0.000736871
396.91	0.000530986
397.13	-8.66917E-05
397.34	0.000921096
397.56	0.000238403
397.78	7.58546E-05
398	-0.001321983
398.22	0.00140876
398.44	-0.003987743
398.65	0.003099245
398.87	0.001766299
399.09	-0.000704367
399.31	0.000270908
399.53	0.000758546
399.74	0.000368436
399.96	-0.000314257
400.18	-0.000411784
400.4	0.000270908
400.62	-0.002167292
400.84	0.000205885
401.05	-0.000769389
401.27	0.001148655
401.49	-0.0001192
401.71	-0.001257027
401.93	-0.000444289
402.15	0.000238403
402.36	-0.001159499
402.58	0.000303413
402.8	-0.000281752
403.02	0.001311206
403.24	0.001018623
403.46	-0.000476807
403.68	1.08365E-05
403.89	0.000205885
404.11	-0.000476807
404.33	-0.002167292
404.55	-0.000509312
404.77	-0.000379279
404.99	-0.001387098
405.21	0.000791064
405.42	0.000433458
405.64	-0.00197221
405.86	0.001896397
406.08	-0.000964444
406.3	-0.000184224
406.52	-0.000249234
406.74	-0.000379279
406.95	0.001733807
407.17	0.000108365
407.39	-0.000379279
407.61	-0.000379279
407.83	-0.001939719
408.05	0.000465963
408.27	-8.66917E-05
408.49	0.001018623
408.71	-0.002037194
408.92	-0.001061972
409.14	-2.16729E-05
409.36	-0.000769389
409.58	0.001213678
409.8	0.001668824
410.02	0.000498468
410.24	0.001116151
410.46	-0.000379279
410.68	-0.000216729
410.89	-8.66917E-05
411.11	0.000108365
411.33	-0.000964444
411.55	0.000628513
411.77	0.000888591
411.99	0.000726041
412.21	-0.001517065
412.43	0.001018623
412.65	-0.0021348
412.87	0.000498468
413.08	-0.00158218
413.3	0.000140876
413.52	-0.000444289
413.74	-0.000314257
413.96	-5.41816E-05
414.18	-0.000931926
414.4	0.000303413
414.62	-0.002459848
414.84	-0.002914994
415.06	-0.001029454
415.28	-0.001289531
415.5	0.000108365
415.72	-0.000769389
415.93	-0.000671862
416.15	-0.001354607
416.37	-0.001354607
416.59	-0.00197221
416.81	0.001473743
417.03	-0.0021348
417.25	0.001083646
417.47	0.001181173
417.69	0.000726041
417.91	0.000335931
418.13	0.000823568
418.35	-0.001939719
418.57	0.000628513
418.79	-0.00376017
419.01	-0.000996949
419.23	-0.001224509
419.45	-0.000996949
419.67	-0.001647163
419.89	0.002871672
420.1	-0.000509312
420.32	0.000335931
420.54	-0.001159499
420.76	0.001571217
420.98	-0.000216729
421.2	0.000108365
421.42	-0.001777129
421.64	0.002156461
421.86	-0.000736871
422.08	0.00040094
422.3	0.001538726
422.52	0.00040094
422.74	0.0009536
422.96	0.000498468
423.18	0.000563491
423.4	0.003651865
423.62	-0.000411784
423.84	0.000563491
424.06	0.000173381
424.28	-0.001321983
424.5	-2.16729E-05
424.72	-0.000639344
424.94	0.000563491
425.16	-0.000281752
425.38	0.000661018
425.6	-0.000281752
425.82	7.58546E-05
426.04	0.000921096
426.26	-0.000379279
426.48	0.000335931
426.7	-0.000931926
426.92	-0.00141959
427.14	-0.001029454
427.36	0.001083646
427.58	-0.001517065
427.8	-0.000509312
428.02	-0.000379279
428.24	0.000108365
428.46	-0.000216729
428.68	0.000238403
428.9	-0.000314257
429.12	-0.000996949
429.34	-0.000411784
429.56	4.33458E-05
429.78	-0.003012468
430	0.000888591
430.22	-0.001614671
430.44	0.000921096
430.66	-0.001321983
430.88	0.000888591
431.1	7.58546E-05
431.32	0.00140876
431.54	-0.002004702
431.76	0.000596009
431.98	-0.000671862
432.2	0.000856073
432.42	-0.000249234
432.64	-0.000216729
432.87	-0.000736871
433.09	-0.001679654
433.31	-0.000769389
433.53	0.001538726
433.75	-0.000249234
433.97	0.000270908
434.19	-0.003077583
434.41	-0.000411784
434.63	-0.001549556
434.85	0.001603841
435.07	-0.001874736
435.29	-0.000346761
435.51	0.002091478
435.73	-0.001744638
435.95	-0.001061972
436.17	0.000693536
436.39	-0.004020367
436.61	-0.000769389
436.83	-0.000931926
437.06	-0.001289531
437.28	-0.000541816
437.5	0.00179879
437.72	-0.000281752
437.94	-0.000736871
438.16	-0.000346761
438.38	0.000693536
438.6	-0.000899421
438.82	0.000758546
439.04	-0.001387098
439.26	-0.001517065
439.48	-0.0001192
439.7	0.000823568
439.93	-0.001939719
440.15	-0.001647163
440.37	0.002286428
440.59	0.000921096
440.81	-0.000216729
441.03	-0.000346761
441.25	0.000238403
441.47	0.001148655
441.69	-0.000996949
441.91	0.002319051
442.13	-0.001224509
442.36	0.001213678
442.58	-0.002167292
442.8	0.000888591
443.02	0.000498468
443.24	0.001506234
443.46	0.00196138
443.68	0.001701316
443.9	-0.000671862
444.12	0.000888591
444.35	0.001083646
444.57	0.001018623
444.79	0.00196138
445.01	-0.000411784
445.23	-0.000801894
445.45	-0.000671862
445.67	-0.002589946
445.89	0.000108365
446.12	-0.001387098
446.34	-0.000509312
446.56	-0.000281752
446.78	-5.41816E-05
447	-0.000509312
447.22	0.001376268
447.44	0.002058855
447.66	0.00040094
447.89	0.00040094
448.11	0.001311206
448.33	-0.000346761
448.55	0.0009536
448.77	0.000173381
448.99	0.001311206
449.21	-5.41816E-05
449.44	0.001018623
449.66	-0.002264766
449.88	-0.001289531
450.1	-0.001354607
450.32	-0.000216729
450.54	-0.002362373
450.76	0.000108365
450.99	-0.000314257
451.21	0.002319051
451.43	0.000823568
451.65	0.000335931
451.87	-0.002719912
452.09	0.002058855
452.32	-0.001647163
452.54	-0.000801894
452.76	-0.001354607
452.98	0.001083646
453.2	-0.000866917
453.42	-0.000704367
453.65	-0.00158218
453.87	-0.001321983
454.09	-0.001614671
454.31	-0.000769389
454.53	-0.001224509
454.75	0.000758546
454.98	0.002514
455.2	-0.0001192
455.42	-0.000931926
455.64	-0.000216729
455.86	-0.001549556
456.09	0.001603841
456.31	-5.41816E-05
456.53	0.000921096
456.75	-8.66917E-05
456.97	1.08365E-05
457.19	0.003196719
457.42	-0.001517065
457.64	4.33458E-05
457.86	-0.001484573
458.08	-0.001614671
458.3	-0.001744638
458.53	0.000563491
458.75	0.0009536
458.97	-0.003272533
459.19	0.000270908
459.41	0.000530986
459.64	-0.0021348
459.86	0.002449017
460.08	7.58546E-05
460.3	-0.000866917
460.53	-0.000996949
460.75	-0.000411784
460.97	0.00040094
461.19	-0.000931926
461.41	0.001473743
461.64	-0.002687421
461.86	-0.002979977
462.08	0.000335931
462.3	-5.41816E-05
462.53	0.000661018
462.75	0.001441251
462.97	0.002449017
463.19	-0.001907227
463.41	-0.001647163
463.64	-0.000476807
463.86	0.000303413
464.08	1.08365E-05
464.3	0.000465963
464.53	0.000563491
464.75	-0.000379279
464.97	-0.0001192
465.19	-0.001061972
465.42	-0.001712146
465.64	0.001766299
465.86	-0.001029454
466.08	-0.001321983
466.31	-0.000606839
466.53	0.001863905
466.75	0.000368436
466.97	-0.000509312
467.2	-0.0021348
467.42	0.001993872
467.64	-0.001289531
467.86	0.000693536
468.09	-0.001257027
468.31	-0.000151706
468.53	-0.001321983
468.75	-0.000671862
468.98	0.000303413
469.2	0.0009536
469.42	0.000108365
469.64	-0.000216729
469.87	0.001246183
470.09	-0.001192004
470.31	-0.000444289
470.54	0.001863905
470.76	-0.000801894
470.98	0.000498468
471.2	0.000856073
471.43	0.001116151
471.65	-0.001289531
471.87	1.08365E-05
472.09	0.001278701
472.32	0.002774065
472.54	-0.000801894
472.76	0.001636332
472.99	-0.001029454
473.21	-0.001809621
473.43	-0.002004702
473.65	0.001018623
473.88	0.000108365
474.1	0.001343776
474.32	-0.001809621
474.55	-0.000801894
474.77	0.000693536
474.99	0.000368436
475.22	-0.002492339
475.44	0.000596009
475.66	-0.001126981
475.88	0.000791064
476.11	-2.16729E-05
476.33	0.000498468
476.55	-0.001289531
476.78	-0.000411784
477	0.001733807
477.22	0.000335931
477.45	-0.001647163
477.67	0.000530986
477.89	-0.002037194
478.12	7.58546E-05
478.34	-0.001809621
478.56	0.001896397
478.79	-0.002199783
479.01	-0.001289531
479.23	-0.001614671
479.46	7.58546E-05
479.68	0.000465963
479.9	0.001571217
480.13	0.001441251
480.35	-0.000606839
480.57	-0.001192004
480.8	0.001083646
481.02	-0.001257027
481.24	-0.001094476
481.47	-0.001289531
481.69	-0.001224509
481.91	-0.001647163
482.14	-0.001517065
482.36	0.000693536
482.58	-0.002492339
482.81	-5.41816E-05
483.03	-0.000249234
483.25	-0.001257027
483.48	0.000921096
483.7	-0.002102309
483.92	-2.16729E-05
484.15	-0.000606839
484.37	0.000238403
484.59	-0.000964444
484.82	-0.002102309
485.04	-5.41816E-05
485.26	0.00212397
485.49	-0.002167292
485.71	-5.41816E-05
485.94	-0.001452082
486.16	0.000986118
486.38	-0.001159499
486.61	0.000986118
486.83	0.000270908
487.05	-0.00197221
487.28	-0.001452082
487.5	-0.000281752
487.73	-0.001289531
487.95	0.000563491
488.17	0.000270908
488.4	-0.000476807
488.62	0.000823568
488.84	-0.000346761
489.07	-0.000541816
489.29	0.001246183
489.52	-0.002004702
489.74	-0.0001192
489.96	-0.003077583
490.19	-0.000931926
490.41	-0.000639344
490.64	0.000303413
490.86	0.000140876
491.08	0.002969146
491.31	0.001733807
491.53	0.000173381
491.76	-0.000379279
491.98	0.000303413
492.2	0.000921096
492.43	-0.001809621
492.65	-0.00197221
492.88	-0.001517065
493.1	0.000303413
493.32	-0.000541816
493.55	0.000888591
493.77	-0.001029454
494	-0.001452082
494.22	0.000693536
494.44	0.000465963
494.67	0.00179879
494.89	-0.001321983
495.12	0.000661018
495.34	-0.000281752
495.56	-0.000184224
495.79	-0.000574334
496.01	-0.000379279
496.24	-0.000996949
496.46	0.001311206
496.69	0.000823568
496.91	0.00140876
497.13	0.000596009
497.36	-2.16729E-05
497.58	-0.001939719
497.81	-0.001257027
498.03	0.000628513
498.26	7.58546E-05
498.48	-0.001321983
498.71	-0.000899421
498.93	-0.001452082
499.15	-0.000509312
499.38	-0.001257027
499.6	-0.000379279
499.83	-0.001321983
500.05	0.000238403
500.28	-0.000736871
500.5	-0.001517065
500.73	0.000498468
500.95	0.000498468
501.17	0.000693536
501.4	0.000368436
501.62	0.000661018
501.85	-0.001777129
502.07	-0.000931926
502.3	0.001376268
502.52	0.000368436
502.75	-0.000996949
502.97	-0.001517065
503.2	-0.002167292
503.42	-0.000834399
503.64	0.002188953
503.87	-0.000996949
504.09	0.000335931
504.32	-0.0001192
504.54	4.33458E-05
504.77	0.000661018
504.99	0.000108365
505.22	0.000628513
505.44	0.001116151
505.67	-2.16729E-05
505.89	-0.001094476
506.12	-0.002427356
506.34	1.08365E-05
506.57	4.33458E-05
506.79	-0.000931926
507.02	-0.000964444
507.24	0.000596009
507.47	-0.000704367
507.69	-0.000379279
507.92	-0.002687421
508.14	-0.000314257
508.37	-0.002947485
508.59	4.33458E-05
508.82	0.000661018
509.04	-0.000671862
509.27	-0.001809621
509.49	-0.000151706
509.72	-0.002394865
509.94	0.001993872
510.17	-0.00376017
510.39	0.00040094
510.62	-0.001257027
510.84	0.002969146
511.07	-0.0001192
511.29	-0.001647163
511.52	-0.000769389
511.74	-0.000866917
511.97	-0.001029454
512.19	-0.000931926
512.42	0.000173381
512.64	0.000433458
512.87	-0.000184224
513.09	0.002058855
513.32	-0.002427356
513.54	0.001246183
513.77	-0.001679654
513.99	0.000791064
514.22	0.001603841
514.44	0.001083646
514.67	-0.001354607
514.89	0.000205885
515.12	0.000140876
515.34	0.000140876
515.57	-0.001517065
515.8	0.001766299
516.02	0.000140876
516.25	0.000921096
516.47	-5.41816E-05
516.7	-0.001387098
516.92	0.000368436
517.15	0.000791064
517.37	0.000888591
517.6	-0.001061972
517.82	-0.000899421
518.05	-0.001224509
518.27	1.08365E-05
518.5	-0.000931926
518.73	0.001993872
518.95	-0.002589946
519.18	-0.000801894
519.4	-0.001712146
519.63	0.001148655
519.85	-0.000509312
520.08	0.001636332
520.3	-0.001744638
520.53	-0.000541816
520.76	-0.000671862
520.98	0.001538726
521.21	0.00040094
521.43	0.000498468
521.66	4.33458E-05
521.88	0.000433458
522.11	-0.000574334
522.34	0.000140876
522.56	-0.000476807
522.79	0.000205885
523.01	-0.001387098
523.24	-0.001029454
523.46	-0.001354607
523.69	-0.000574334
523.92	-0.003110075
524.14	0.000368436
524.37	-0.001679654
524.59	0.000270908
524.82	-0.002297258
525.05	-0.001712146
525.27	-0.0001192
525.5	-0.000411784
525.72	-0.000931926
525.95	0.002384034
526.17	-0.001452082
526.4	0.000856073
526.63	-0.002622438
526.85	7.58546E-05
527.08	-2.16729E-05
527.3	0.001148655
527.53	-0.001809621
527.76	0.000726041
527.98	-0.000184224
528.21	-0.000314257
528.43	-0.000996949
528.66	0.000173381
528.89	-0.000444289
529.11	0.00140876
529.34	-0.001452082
529.56	-0.000509312
529.79	-0.001517065
530.02	-0.000476807
530.24	-0.000346761
530.47	-0.000314257
530.7	0.001343776
530.92	-0.0021348
531.15	-0.001159499
531.37	-0.000574334
531.6	-0.00158218
531.83	-0.001679654
532.05	-0.000996949
532.28	-0.001289531
532.51	-0.00158218
532.73	-0.001614671
532.96	-0.001549556
533.18	0.000563491
533.41	-0.002102309
533.64	0.001018623
533.86	-0.001094476
534.09	-0.001159499
534.32	-2.16729E-05
534.54	-0.000346761
534.77	-0.001159499
535	0.002449017
535.22	-0.000541816
535.45	0.000173381
535.67	0.000563491
535.9	0.00196138
536.13	-0.002427356
536.35	-0.000509312
536.58	-0.002329882
536.81	0.000563491
537.03	-0.001614671
537.26	-0.000704367
537.49	-0.002329882
537.71	-0.000541816
537.94	-0.002297258
538.17	-0.002394865
538.39	0.000921096
538.62	-0.001679654
538.85	-0.00197221
539.07	-0.001809621
539.3	-0.002492339
539.53	-0.000996949
539.75	0.000335931
539.98	0.000628513
540.21	0.000368436
540.43	0.000238403
540.66	-0.001744638
540.89	4.33458E-05
541.11	0.000530986
541.34	-0.001257027
541.57	-0.000931926
541.79	-0.000899421
542.02	0.000596009
542.25	-0.000606839
542.47	0.001603841
542.7	-2.16729E-05
542.93	-0.004670462
543.15	-0.002329882
543.38	-0.002427356
543.61	0.002416526
543.83	0.000205885
544.06	0.000986118
544.29	-0.001061972
544.51	-0.000639344
544.74	0.000108365
544.97	0.001181173
545.2	-0.001321983
545.42	-0.000411784
545.65	-0.001029454
545.88	-0.000379279
546.1	-0.000996949
546.33	-5.41816E-05
546.56	-0.001126981
546.78	0.002351543
547.01	0.001668824
547.24	0.002871672
547.47	0.000888591
547.69	-0.001126981
547.92	0.001018623
548.15	0.0009536
548.37	-0.000606839
548.6	-0.002167292
548.83	-0.001354607
549.06	-0.000671862
549.28	-0.000606839
549.51	0.000693536
549.74	0.001311206
549.96	7.58546E-05
550.19	-0.001387098
550.42	0.000465963
550.65	-0.001647163
550.87	0.001506234
551.1	-0.000314257
551.33	-0.000606839
551.55	-0.000444289
551.78	-0.000249234
552.01	-0.001809621
552.24	-0.000476807
552.46	-0.001874736
552.69	-0.000444289
552.92	-0.001842244
553.15	-5.41816E-05
553.37	-0.001126981
553.6	-0.000184224
553.83	-0.00197221
554.06	-0.001549556
554.28	-0.000476807
554.51	0.000433458
554.74	0.000563491
554.97	-0.000216729
555.19	-0.001744638
555.42	0.00040094
555.65	0.000270908
555.87	-0.00197221
556.1	-0.000151706
556.33	-0.000281752
556.56	0.000856073
556.79	0.000433458
557.01	-0.000411784
557.24	0.001831414
557.47	-0.0001192
557.7	0.001636332
557.92	-0.000769389
558.15	0.000433458
558.38	-0.000671862
558.61	0.001311206
558.83	-0.000801894
559.06	0.000238403
559.29	0.001571217
559.52	-0.000834399
559.74	-0.000704367
559.97	0.002058855
560.2	0.000596009
560.43	1.08365E-05
560.66	-0.000964444
560.88	0.00212397
561.11	-0.00141959
561.34	0.000303413
561.57	-0.001484573
561.79	0.00196138
562.02	-0.001647163
562.25	-0.000574334
562.48	-0.002264766
562.71	0.000758546
562.93	0.000693536
563.16	0.001733807
563.39	-0.000444289
563.62	-0.001029454
563.84	0.000173381
564.07	-0.000899421
564.3	-0.000866917
564.53	0.000205885
564.76	-0.00158218
564.98	0.000661018
565.21	1.08365E-05
565.44	-0.001126981
565.67	0.001473743
565.9	0.002058855
566.12	0.000433458
566.35	0.001083646
566.58	-2.16729E-05
566.81	0.003261702
567.04	-0.000151706
567.26	0.000270908
567.49	-0.000899421
567.72	0.000921096
567.95	-0.002069817
568.18	-0.001549556
568.41	-0.003077583
568.63	-0.002264766
568.86	-0.000801894
569.09	0.000530986
569.32	-0.0001192
569.55	-0.000606839
569.77	-0.00197221
570	-0.000249234
570.23	-0.001224509
570.46	0.000368436
570.69	0.001733807
570.92	-0.000379279
571.14	-0.001257027
571.37	0.001083646
571.6	0.001116151
571.83	0.001928888
572.06	-0.000964444
572.29	0.000498468
572.51	4.33458E-05
572.74	0.002709082
572.97	0.001636332
573.2	-0.000314257
573.43	0.001148655
573.66	-0.000476807
573.88	0.00140876
574.11	-8.66917E-05
574.34	0.002091478
574.57	0.003976913
574.8	-0.0001192
575.03	0.001571217
575.26	0.002579116
575.48	0.002384034
575.71	0.002449017
575.94	0.001148655
576.17	0.003034129
576.4	0.007065327
576.63	0.006447723
576.85	0.007780537
577.08	0.008073093
577.31	0.010478788
577.54	0.010121249
577.77	0.014347792
578	0.015549715
578.23	0.019028688
578.46	0.016948436
578.68	0.02182481
578.91	0.023449387
579.14	0.034405378
579.37	0.036062975
579.6	0.042532227
579.83	0.04383321
580.06	0.052026099
580.28	0.054464286
580.51	0.066070108
580.74	0.067987902
580.97	0.082908918
581.2	0.076830621
581.43	0.088436443
581.66	0.091849377
581.89	0.104332206
582.12	0.103228022
582.34	0.116686919
582.57	0.123448066
582.8	0.137811708
583.03	0.138406065
583.26	0.151666843
583.49	0.159855769
583.72	0.172958052
583.95	0.175850592
584.18	0.189573648
584.4	0.195358728
584.63	0.209306319
584.86	0.21431213
585.09	0.233424028
585.32	0.234401416
585.55	0.256643597
585.78	0.253288779
586.01	0.268860947
586.24	0.279400888
586.47	0.303782756
586.69	0.310373521
586.92	0.330436391
587.15	0.333659129
587.38	0.353259721
587.61	0.357486264
587.84	0.3798209
588.07	0.387428677
588.3	0.412286031
588.53	0.411440723
588.76	0.446270076
588.99	0.448211644
589.21	0.466914096
589.44	0.48251268
589.67	0.505428466
589.9	0.513458897
590.13	0.530232988
590.36	0.542846577
590.59	0.579326923
590.82	0.584398774
591.05	0.604620139
591.28	0.61612426
591.51	0.64788937
591.74	0.662193576
591.97	0.679099746
592.19	0.698594675
592.42	0.720084003
592.65	0.730756023
592.88	0.758453085
593.11	0.77096101
593.34	0.791063504
593.57	0.808616864
593.8	0.834583686
594.03	0.842614117
594.26	0.865794062
594.49	0.884417265
594.72	0.908680262
594.95	0.915244611
595.18	0.943364328
595.41	0.935756551
595.64	0.968723584
595.87	0.972170858
596.1	0.979514476
596.32	0.976621936
596.55	1
596.78	0.992748838
597.01	0.990239328
597.24	0.990397823
597.47	0.983384404
597.7	0.989592139
597.93	0.990503487
598.16	0.976516272
598.39	0.978959742
598.62	0.95762891
598.85	0.94000951
599.08	0.925454353
599.31	0.923142963
599.54	0.895802515
599.77	0.881339814
600	0.863944949
600.23	0.844634932
600.46	0.820451183
600.69	0.799992075
600.92	0.775068681
601.15	0.751003804
601.38	0.72704459
601.61	0.704036348
601.84	0.667463546
602.07	0.646555368
602.3	0.623375423
602.53	0.604646555
602.76	0.575364539
602.99	0.562869822
603.22	0.529612215
603.45	0.50829459
603.68	0.486963757
603.91	0.468697168
604.14	0.435862215
604.36	0.412946429
604.59	0.396779903
604.82	0.381247358
605.05	0.353193681
605.28	0.342944315
605.51	0.321270076
605.74	0.301788356
605.97	0.283363271
606.2	0.278093301
606.43	0.252575549
606.66	0.240252536
606.89	0.219093407
607.12	0.210415786
607.35	0.193086961
607.58	0.185215025
607.81	0.16512574
608.05	0.15927462
608.28	0.139674028
608.51	0.13876268
608.74	0.115906329
608.97	0.112395657
609.2	0.094645499
609.43	0.086712806
609.66	0.077349694
609.89	0.074521872
610.12	0.054560704
610.35	0.052220256
610.58	0.045165892
610.81	0.039997623
611.04	0.031415099
611.27	0.027384034
611.5	0.024262997
611.73	0.019158126
611.96	0.011616653
612.19	0.013956836
612.42	0.010316198
612.65	0.010218724
612.88	0.004074519
613.11	0.005212252
613.34	0.003846946
613.57	0.002904163
613.8	0.003326817
614.03	0.000530986
614.26	0.00283918
614.49	0.001896397
614.72	0.003001638
614.95	-0.001257027
615.18	0.000140876
615.41	0.000791064
615.64	0.00040094
615.87	0.002091478
616.1	0.002969146
616.34	0.000335931
616.57	0.001051128
616.8	-0.000964444
617.03	0.001506234
617.26	0.000563491
617.49	0.000856073
617.72	-0.000671862
617.95	-0.001744638
618.18	-0.000964444
618.41	0.000108365
618.64	-0.001126981
618.87	-0.000866917
619.1	-0.002037194
619.33	0.000335931
619.56	-0.002622438
619.79	-0.000151706
620.02	0.000465963
620.26	0.003131736
620.49	0.00040094
620.72	0.001246183
620.95	0.000270908
621.18	0.000628513
621.41	-0.002199783
621.64	-0.001192004
621.87	-0.001126981
622.1	-0.000281752
622.33	-0.002037194
622.56	-0.000541816
622.79	0.001116151
623.02	-0.000184224
623.25	0.001343776
623.49	0.001083646
623.72	-0.00158218
623.95	-0.000476807
624.18	-0.000639344
624.41	-0.000151706
624.64	0.000140876
624.87	0.000628513
625.1	-0.002264766
625.33	-0.0021348
625.56	-0.002622438
625.79	0.000530986
626.03	-0.001874736
626.26	-0.001192004
626.49	0.000140876
626.72	-0.0001192
626.95	-0.002232275
627.18	1.08365E-05
627.41	-0.002557455
627.64	-0.001126981
627.87	-0.000639344
628.1	0.001766299
628.33	-0.001744638
628.57	0.000596009
628.8	0.000986118
629.03	0.000823568
629.26	-0.001387098
629.49	0.000888591
629.72	-0.001289531
629.95	-0.001842244
630.18	-0.000541816
630.41	-0.001126981
630.65	-0.000476807
630.88	0.000238403
631.11	-0.000639344
631.34	0.000628513
631.57	-0.000736871
631.8	-0.000899421
632.03	-0.000281752
632.26	0.000238403
632.5	-0.001517065
632.73	-0.001159499
632.96	-0.000769389
633.19	0.000791064
633.42	-0.000736871
633.65	-0.001809621
633.88	0.001733807
634.11	-0.001192004
634.35	-0.001094476
634.58	-0.001809621
634.81	0.000335931
635.04	-0.00197221
635.27	0.000498468
635.5	-0.001452082
635.73	-0.000509312
635.96	0.000238403
636.2	0.000530986
636.43	0.000368436
636.66	0.000888591
636.89	0.00040094
637.12	-0.001744638
637.35	-0.000509312
637.58	-0.000931926
637.82	-0.000444289
638.05	-0.000996949
638.28	-0.00141959
638.51	-0.001809621
638.74	0.000986118
638.97	-0.001094476
639.21	0.001603841
639.44	0.000823568
639.67	-0.001842244
639.9	0.000433458
640.13	0.000628513
640.36	-0.000769389
640.59	-0.002654929
640.83	0.001928888
641.06	-0.0001192
641.29	0.000270908
641.52	0.000628513
641.75	-0.000769389
641.98	0.002644099
642.22	0.000693536
642.45	-0.001809621
642.68	0.000173381
642.91	-0.001354607
643.14	-0.001712146
643.37	-0.000151706
643.61	0.000726041
643.84	-0.000899421
644.07	-0.001159499
644.3	-0.000379279
644.53	0.001018623
644.76	0.000791064
645	0.002319051
645.23	0.0009536
645.46	0.000661018
645.69	-2.16729E-05
645.92	-0.000639344
646.16	-0.001809621
646.39	-0.000184224
646.62	-0.002394865
646.85	-0.002264766
647.08	-0.002459848
647.31	0.001083646
647.55	-0.002297258
647.78	0.003066753
648.01	-0.000634985
648.24	0.000240675
648.47	-0.001427383
648.71	0.000238126
648.94	0.000141417
649.17	0.00017412
649.4	-0.000118792
649.63	0.002544643
649.87	-0.002477282
650.1	-0.000346009
650.33	-0.000653503
650.56	0.001507423
650.79	0.001913699
651.03	0.001532914
651.26	0.000149448
651.49	-0.000528093
651.72	-0.003012336
651.95	0.002140876
652.19	-0.003012865
652.42	0.00099193
652.65	-0.001133929
652.88	-0.000856918
653.12	0.002192387
653.35	-0.002261332
653.58	-0.000774118
653.81	0.000250092
654.04	0.001423156
654.28	-0.001093354
654.51	-0.002117762
654.74	-0.000368753
654.97	-0.001796809
655.2	0.000632013
655.44	0.00137574
655.67	-0.001866283
655.9	-0.000564957
656.13	-0.000187223
656.37	0.000567928
656.6	0.000848928
656.83	-0.001739354
657.06	-0.000468869
657.3	0.000777116
657.53	-0.000152552
657.76	-0.002474905
657.99	0.00118573
658.22	-0.000218301
658.46	0.001245443
658.69	7.58546E-05
658.92	0.002058855
659.15	-0.001126981
659.39	0.000303413
659.62	-0.002524831
659.85	0.001441251
660.08	-0.003272533
660.32	-0.001289531
660.55	0.002058855
660.78	0.000986118
661.01	0.000205885
661.25	0.0009536
661.48	-5.41816E-05
661.71	0.000823568
661.94	1.08365E-05
662.18	0.000465963
662.41	-0.001452082
662.64	0.000596009
662.87	0.000856073
663.11	-0.0001192
663.34	-0.000574334
663.57	0.000563491
663.8	7.58546E-05
664.04	0.001083646
664.27	-0.002427356
664.5	0.001766299
664.73	0.000238403
664.97	0.001181173
665.2	-0.002947485
665.43	0.000108365
665.67	0.001246183
665.9	0.001376268
666.13	-0.001647163
666.36	-0.000704367
666.6	-0.002427356
666.83	4.33458E-05
667.06	-0.000346761
667.29	0.000108365
667.53	-0.000671862
667.76	0.001083646
667.99	0.001051128
668.23	0.000368436
668.46	-0.00158218
668.69	0.00140876
668.92	0.003229211
669.16	-0.000509312
669.39	0.000628513
669.62	-0.000509312
669.86	-0.000606839
670.09	0.001116151
670.32	-0.000541816
670.55	-0.002167292
670.79	-0.002427356
671.02	0.000596009
671.25	-0.002979977
671.49	-0.000639344
671.72	-0.001289531
671.95	0.001441251
672.18	0.000628513
672.42	0.000726041
672.65	-0.000281752
672.88	0.001018623
673.12	-0.000476807
673.35	0.000726041
673.58	0.001993872
673.82	-0.00158218
674.05	-0.003402631
674.28	-0.001907227
674.51	-0.003435123
674.75	0.000108365
674.98	-0.000509312
675.21	-0.00197221
675.45	0.002351543
675.68	-0.000541816
675.91	-0.000476807
676.15	-0.000541816
676.38	0.000726041
676.61	0.001051128
676.85	-0.001517065
677.08	0.000661018
677.31	-0.00141959
677.54	1.08365E-05
677.78	0.000823568
678.01	0.003066753
678.24	-0.001061972
678.48	0.000791064
678.71	-0.001061972
678.94	-0.000866917
679.18	0.001603841
679.41	-0.000151706
679.64	-0.000834399
679.88	0.001993872
680.11	-0.002199783
680.34	-0.00141959
680.58	0.00140876
680.81	-0.000769389
681.04	-0.001452082
681.28	-0.001452082
681.51	0.001051128
681.74	7.58546E-05
681.98	4.33458E-05
682.21	-0.000639344
682.44	-0.000671862
682.68	0.001506234
682.91	-0.002752404
683.14	0.00283918
683.38	-0.001126981
683.61	0.000270908
683.84	1.08365E-05
684.08	-0.000216729
684.31	-0.001289531
684.54	0.002221444
684.78	-0.000996949
685.01	-0.00158218
685.25	-0.000541816
685.48	-0.001126981
685.71	-0.000639344
685.95	-0.000639344
686.18	-0.002362373
686.41	-0.000184224
686.65	-0.000801894
686.88	-0.003012468
687.11	-0.003272533
687.35	0.001116151
687.58	-5.41816E-05
687.81	0.000465963
688.05	-0.001387098
688.28	-0.001126981
688.52	-0.000606839
688.75	-0.0001192
688.98	0.001993872
689.22	0.001181173
689.45	-2.16729E-05
689.68	0.002319051
689.92	0.001376268
690.15	-0.000866917
690.38	-0.000379279
690.62	0.001538726
690.85	-0.000476807
691.09	0.001083646
691.32	-0.000281752
691.55	0.00040094
691.79	-0.001549556
692.02	0.000986118
692.25	-0.001289531
692.49	-0.001354607
692.72	-0.002719912
692.96	0.001636332
693.19	0.001636332
693.42	-0.000509312
693.66	0.003846946
693.89	-0.001289531
694.12	-0.001647163
694.36	-0.003435123
694.59	0.001473743
694.83	-0.000541816
695.06	-0.001777129
695.29	-0.000216729
695.53	0.000270908
695.76	-0.002232275
696	-0.000736871
696.23	-0.002004702
696.46	-0.000281752
696.7	4.33458E-05
696.93	-0.000931926
697.17	-0.000671862
697.4	0.003164228
697.63	-0.001354607
697.87	1.08365E-05
698.1	-0.000606839
698.34	0.001571217
698.57	-0.000379279
698.8	-0.003012468
699.04	-0.000866917
699.27	-2.16729E-05
699.51	0.00140876
699.74	0.00196138
699.97	-0.000866917
700.21	0.000791064
700.44	-0.001094476
700.68	0.001668824
700.91	0.000108365
701.14	0.001603841
701.38	0.000693536
701.61	0.000140876
701.85	-0.000801894
702.08	0.002384034
702.32	-0.001094476
702.55	0.000270908
702.78	-0.001257027
703.02	-0.001061972
703.25	-0.001614671
703.49	-0.000249234
703.72	-0.001939719
703.96	0.000986118
704.19	-0.000574334
704.42	0.000888591
704.66	0.001376268
704.89	4.33458E-05
705.13	-8.66917E-05
705.36	-0.000216729
705.6	-0.001224509
705.83	-0.000606839
706.06	-0.002004702
706.3	0.000661018
706.53	-0.000671862
706.77	-0.000736871
707	-0.000541816
707.24	0.000238403
707.47	-0.001289531
707.7	0.002351543
707.94	-0.002167292
708.17	-0.001159499
708.41	-0.002427356
708.64	-0.000509312
708.88	0.000921096
709.11	-0.001159499
709.35	-0.001029454
709.58	-0.001094476
709.81	-0.000184224
710.05	0.000270908
710.28	-2.16729E-05
710.52	-0.001321983
710.75	0.001766299
710.99	0.000921096
711.22	-0.000249234
711.46	-0.000379279
711.69	0.001116151
711.92	0.001018623
712.16	-0.000509312
712.39	-0.002394865
712.63	0.00040094
712.86	-0.001321983
713.1	0.00040094
713.33	-0.002882502
713.57	0.00040094
713.8	0.00140876
714.04	-0.002037194
714.27	0.00140876
714.51	0.000596009
714.74	0.001668824
714.97	-0.0001192
715.21	0.000173381
715.44	-0.000996949
715.68	0.002416526
715.91	-0.002784895
716.15	0.000726041
716.38	0.000335931
716.62	-0.001159499
716.85	-0.000996949
717.09	0.002384034
717.32	-0.001647163
717.56	-0.001452082
717.79	0.00040094
718.03	0.000530986
718.26	0.001506234
718.5	0.000921096
718.73	-0.000704367
718.97	0.000108365
719.2	-0.000151706
719.44	-0.002037194
719.67	-0.000541816
719.91	-0.000606839
720.14	-0.001224509
720.37	0.00179879
720.61	0.000563491
720.84	-0.000281752
721.08	-0.001159499
721.31	0.001863905
721.55	-0.001289531
721.78	0.001116151
722.02	-0.0001192
722.25	-0.001094476
722.49	-0.00141959
722.72	0.00140876
722.96	0.000791064
723.19	-0.000769389
723.43	-0.001484573
723.66	0.000693536
723.9	7.58546E-05
724.13	0.000986118
724.37	-0.000639344
724.6	-0.001517065
724.84	0.0009536
725.07	-0.001126981
725.31	0.001018623
725.54	-8.66917E-05
725.78	0.000758546
726.01	-0.001647163
726.25	-0.001029454
726.48	0.000140876
726.72	-0.002232275
726.96	0.000530986
727.19	-0.003435123
727.43	0.000791064
727.66	0.000726041
727.9	-0.001679654
728.13	0.006545198
728.37	-0.000736871
728.6	-0.002557455
728.84	0.000303413
729.07	0.000661018
729.31	-0.001094476
729.54	0.000758546
729.78	4.33458E-05
730.01	-0.000541816
730.25	0.000888591
730.48	-5.41816E-05
730.72	0.002449017
730.95	-0.000801894
731.19	0.000726041
731.42	0.0009536
731.66	0.000596009
731.89	-0.001126981
732.13	-0.000574334
732.37	-0.000736871
732.6	-0.000801894
732.84	-0.002069817
733.07	0.001538726
733.31	0.000303413
733.54	1.08365E-05
733.78	-0.000281752
734.01	0.000856073
734.25	-0.000964444
734.48	-0.001712146
734.72	-0.001192004
734.95	-0.000866917
735.19	-0.001257027
735.43	-0.000996949
735.66	-8.66917E-05
735.9	0.001896397
736.13	-0.001289531
736.37	0.001603841
736.6	-0.000216729
736.84	-5.41816E-05
737.07	-0.001387098
737.31	-5.41816E-05
737.55	-0.002979977
737.78	0.00040094
738.02	-0.000249234
738.25	-0.000834399
738.49	-0.001321983
738.72	-0.000379279
738.96	-0.00141959
739.19	0.00040094
739.43	-0.000671862
739.67	-0.000281752
739.9	0.003359309
740.14	0.002091478
740.37	-0.001777129
740.61	-0.000281752
740.84	-8.66917E-05
741.08	0.000758546
741.31	-0.001939719
741.55	0.000921096
741.79	-0.001289531
742.02	0.001733807
742.26	-8.66917E-05
742.49	0.001083646
742.73	0.001701316
742.96	-0.000769389
743.2	0.000726041
743.44	0.001603841
743.67	-0.000509312
743.91	-0.000996949
744.14	0.000465963
744.38	-0.001484573
744.61	0.000335931
744.85	0.000368436
745.09	0.000726041
745.32	-0.000249234
745.56	-0.000931926
745.79	-0.000801894
746.03	0.000823568
746.27	-0.002557455
746.5	-0.000801894
746.74	0.000433458
746.97	-0.001192004
747.21	0.001863905
747.44	-0.001452082
747.68	0.001831414
747.92	-0.000411784
748.15	-0.000216729
748.39	0.001538726
748.62	0.000823568
748.86	-0.001549556
749.1	-0.000281752
749.33	-0.000704367
749.57	0.000205885
749.8	-0.000996949
750.04	-0.001647163
750.28	-0.000314257
750.51	-0.001094476
750.75	0.000693536
750.98	-0.000184224
751.22	-0.000996949
751.46	-0.000346761
751.69	-0.002199783
751.93	-0.000671862
752.16	-0.002557455
752.4	-0.000801894
752.64	-0.000801894
752.87	0.001636332
753.11	-2.16729E-05
753.34	0.001148655
753.58	0.001181173
753.82	-0.001321983
754.05	0.00212397
754.29	-0.002232275
754.53	0.000693536
754.76	-0.000541816
755	0.001278701
755.23	-0.000346761
755.47	0.001148655
755.71	0.00179879
755.94	0.000433458
756.18	-0.001354607
756.41	-0.000249234
756.65	0.000823568
756.89	0.000303413
757.12	-0.001842244
757.36	-0.000216729
757.6	-0.000411784
757.83	-0.000964444
758.07	-5.41816E-05
758.3	0.00179879
758.54	-0.000704367
758.78	0.000693536
759.01	0.000368436
759.25	-0.001126981
759.49	0.000335931
759.72	0.002969146
759.96	-0.001192004
760.2	0.002221444
760.43	-0.000801894
760.67	0.00040094
760.9	-0.000314257
761.14	0.000368436
761.38	-0.000801894
761.61	0.002709082
761.85	-0.000184224
762.09	0.00196138
762.32	-5.41816E-05
762.56	-0.00141959
762.8	1.08365E-05
763.03	0.002709082
763.27	-0.000346761
763.5	0.000888591
763.74	-0.001126981
763.98	-0.001777129
764.21	-0.002654929
764.45	0.00040094
764.69	-0.002297258
764.92	-0.002264766
765.16	-0.003305156
765.4	0.001571217
765.63	-0.000184224
765.87	0.00040094
766.11	-0.002622438
766.34	0.000726041
766.58	-0.001647163
766.82	0.000335931
767.05	0.001181173
767.29	0.000921096
767.53	-0.000639344
767.76	-0.001517065
768	0.000823568
768.24	-0.000899421
768.47	-0.001126981
768.71	0.000726041
768.95	0.001538726
769.18	-0.000899421
769.42	-0.002459848
769.66	0.001376268
769.89	-0.000801894
770.13	0.000758546
770.37	-0.001159499
770.6	-0.000736871
770.84	0.000270908
771.08	-0.001354607
771.31	-0.000444289
771.55	-0.000866917
771.79	-0.002784895
772.02	-0.000184224
772.26	-0.001842244
772.5	0.002904163
772.73	-0.001712146
772.97	-0.000314257
773.21	-0.000964444
773.44	-0.000216729
773.68	-0.001387098
773.92	-0.000379279
774.15	0.000205885
774.39	-0.000671862
774.63	-0.001029454
774.86	0.001993872
775.1	0.000173381
775.34	-0.001094476
775.57	-0.001094476
775.81	0.003814455
776.05	-0.001939719
776.29	0.001213678
776.52	-0.000704367
776.76	0.000856073
777	0.000596009
777.23	-0.000541816
777.47	0.001018623
777.71	0.004171994
777.94	-0.000671862
778.18	0.001668824
778.42	-0.000606839
778.65	0.001701316
778.89	0.000791064
779.13	-0.002622438
779.37	-0.001289531
779.6	-0.001452082
779.84	0.000335931
780.08	-0.001387098
780.31	-0.001289531
780.55	0.002449017
780.79	-0.000314257
781.02	-0.001712146
781.26	0.000628513
781.5	0.001083646
781.74	-0.00141959
781.97	-0.001549556
782.21	0.000433458
782.45	-0.000411784
782.68	-0.001712146
782.92	0.000986118
783.16	-0.001224509
783.4	0.001213678
783.63	-0.000996949
783.87	0.001571217
784.11	0.002871672
784.34	-5.41816E-05
784.58	-0.000379279
784.82	-0.000151706
785.06	-0.000639344
785.29	0.000921096
785.53	-0.000866917
785.77	-0.000411784
786	-0.002719912
786.24	-0.000834399
786.48	-0.001549556
786.72	0.001668824
786.95	0.000270908
787.19	0.000205885
787.43	-0.001484573
787.67	0.000270908
787.9	0.000238403
788.14	-0.0001192
788.38	-0.000444289
788.61	-0.000574334
788.85	-0.000834399
789.09	0.000205885
789.33	-0.001094476
789.56	-0.000509312
789.8	-0.001126981
790.04	-0.001809621
790.28	-0.000671862
790.51	-8.66917E-05
790.75	0.000238403
790.99	-0.001549556
791.23	-0.000899421
791.46	-2.16729E-05
791.7	0.000173381
791.94	0.000368436
792.17	-0.000541816
792.41	0.002188953
792.65	-0.002492339
792.89	-0.00197221
793.12	0.000596009
793.36	0.002026363
793.6	-0.001126981
793.84	0.001441251
794.07	-0.000151706
794.31	0.001213678
794.55	-0.001224509
794.79	0.000563491
795.02	0.000693536
795.26	0.000726041
795.5	-0.002752404
795.74	0.001246183
795.97	-0.000314257
796.21	-0.000769389
796.45	-0.000704367
796.69	0.001083646
796.92	-0.002232275
797.16	0.001148655
797.4	-0.001647163
797.64	0.000238403
797.88	-0.001321983
798.11	-0.000509312
798.35	0.000140876
798.59	0.000205885
798.83	-0.001777129
799.06	0.000791064
799.3	-0.001939719
799.54	-0.000379279
799.78	-0.001029454
800.01	-0.001321983
800.25	-0.000964444
800.49	0.000563491
800.73	-0.000606839
800.96	-0.000606839
801.2	-0.001809621
801.44	-0.002394865
801.68	-0.000476807
801.92	0.000173381
802.15	0.001668824
802.39	-0.001484573
802.63	-0.001126981
802.87	0.000791064
803.1	0.000661018
803.34	-0.000801894
803.58	-0.000834399
803.82	-0.000866917
804.06	-0.000834399
804.29	-0.000834399
804.53	0.00040094
804.77	0.0009536
805.01	-0.000216729
805.24	0.000465963
805.48	-0.000671862
805.72	0.000986118
805.96	0.001116151
806.2	-0.0001192
806.43	-0.001094476
806.67	-0.000639344
806.91	-0.001321983
807.15	0.001928888
807.39	-0.000736871
807.62	-0.000151706
807.86	0.000433458
808.1	-0.001484573
808.34	-0.001387098
808.58	-0.001614671
808.81	-0.001126981
809.05	0.000530986
809.29	-0.001224509
809.53	0.000791064
809.76	-0.002362373
810	0.001148655
810.24	-0.001387098
810.48	0.001311206
810.72	-0.001842244
810.95	0.000173381
811.19	0.0009536
811.43	0.0009536
811.67	-0.000314257
811.91	-0.001452082
812.15	4.33458E-05
812.38	0.001083646
812.62	7.58546E-05
812.86	-0.000769389
813.1	-0.002264766
813.34	0.001181173
813.57	0.000140876
813.81	0.000303413
814.05	-0.000281752
814.29	-0.000996949
814.53	0.000368436
814.76	-0.000996949
815	-0.000249234
815.24	0.002806689
815.48	-0.000964444
815.72	-0.0001192
815.95	-2.16729E-05
816.19	0.000465963
816.43	0.000758546
816.67	0.001668824
816.91	0.000108365
817.15	-0.001939719
817.38	-0.002167292
817.62	0.001148655
817.86	-0.001126981
818.1	-0.002362373
818.34	0.001343776
818.58	-0.000216729
818.81	-0.000866917
819.05	-0.002199783
819.29	0.001473743
819.53	0.000238403
819.77	0.000921096
820	-0.001029454
820.24	-0.000574334
820.48	-0.000899421
820.72	0.001116151
820.96	0.000205885
821.2	-0.000541816
821.43	0.002091478
821.67	0.001928888
821.91	0.001636332
822.15	-0.000509312
822.39	-0.00197221
822.63	-0.001257027
822.86	0.001506234
823.1	-8.66917E-05
823.34	-0.000216729
823.58	-0.000444289
823.82	-2.16729E-05
824.06	-0.000671862
824.3	0.001863905
824.53	-0.0001192
824.77	-0.000606839
825.01	-0.000249234
825.25	-0.000996949
825.49	0.000108365
825.73	-0.001094476
825.96	0.000726041
826.2	-0.000866917
826.44	0.0009536
826.68	0.001148655
826.92	-0.000346761
827.16	-0.001679654
827.4	0.000140876
827.63	0.00040094
827.87	-0.001452082
828.11	0.000270908
828.35	0.001603841
828.59	-0.000184224
828.83	0.000108365
829.07	0.00040094
829.3	0.000108365
829.54	1.08365E-05
829.78	0.001831414
830.02	-0.00158218
830.26	-0.000346761
830.5	-0.001452082
830.74	-2.16729E-05
830.97	-0.000606839
831.21	0.000628513
831.45	-0.000281752
831.69	-0.000996949
831.93	-0.001874736
832.17	0.00179879
832.41	-0.000606839
832.64	-0.000606839
832.88	-0.000671862
833.12	0.000856073
833.36	-0.000216729
833.6	0.000205885
833.84	-0.001321983
834.08	0.002319051
834.32	-0.001777129
834.55	-0.000249234
834.79	0.000108365
835.03	0.000335931
835.27	-0.000639344
835.51	0.001083646
835.75	-0.001354607
835.99	-0.002557455
836.23	-0.000801894
836.46	0.001343776
836.7	0.000173381
836.94	-0.001874736
837.18	-0.000476807
837.42	0.000270908
837.66	0.000205885
837.9	-0.000866917
838.14	0.00179879
838.38	-0.000606839
838.61	-0.000639344
838.85	-0.000346761
839.09	-0.000606839
839.33	-0.000184224
839.57	0.000596009
839.81	-8.66917E-05
840.05	0.001148655
840.29	-0.000476807
840.52	-0.002882502
840.76	-0.000639344
841	0.000823568
841.24	0.001733807
841.48	-0.002264766
841.72	0.000433458
841.96	0.000433458
842.2	-0.000574334
842.44	-0.001679654
842.68	-2.16729E-05
842.91	-5.41816E-05
843.15	-0.000704367
843.39	-0.003142567
843.63	1.08365E-05
843.87	0.001668824
844.11	0.000465963
844.35	-0.001842244
844.59	0.000563491
844.83	-0.001029454
845.07	0.000498468
845.3	0.000628513
845.54	0.000693536
845.78	0.000596009
846.02	-0.000314257
846.26	-0.002069817
846.5	4.33458E-05
846.74	-0.000899421
846.98	0.000791064
847.22	0.000530986
847.46	-0.000671862
847.7	0.00040094
847.93	0.000986118
848.17	-0.000509312
848.41	0.000108365
848.65	-0.001126981
848.89	0.000108365
849.13	-0.000931926
849.37	0.000758546
849.61	0.002546492
849.85	-0.001061972
850.09	-0.001939719
850.33	-0.000801894
850.57	-8.66917E-05
850.8	0.002384034
851.04	-0.000704367
851.28	-0.001029454
851.52	0.000270908
851.76	0.001181173
852	0.00040094
852.24	0.000433458
852.48	-0.001224509
852.72	-0.000606839
852.96	0.001343776
853.2	0.001083646
853.44	-0.000671862
853.68	0.001311206
853.91	-0.002524831
854.15	-0.000671862
854.39	-0.000606839
854.63	0.000888591
854.87	0.001051128
855.11	0.002221444
855.35	-0.000346761
855.59	0.00040094
855.83	-0.000184224
856.07	0.001538726
856.31	-0.000281752
856.55	0.001831414
856.79	-0.000736871
857.03	0.000791064
857.27	-0.001321983
857.5	0.001733807
857.74	-0.001387098
857.98	0.000888591
858.22	-0.001387098
858.46	-0.000379279
858.7	-0.003142567
858.94	0.000726041
859.18	-0.000866917
859.42	0.001668824
859.66	0.001018623
859.9	0.000173381
860.14	-0.003435123
860.38	-0.000639344
860.62	-0.000769389
860.86	-0.000281752
861.1	-0.000606839
861.34	-0.001029454
861.58	0.000628513
861.81	0.00040094
862.05	-0.001452082
862.29	0.0009536
862.53	-0.001679654
862.77	0.000498468
863.01	0.001278701
863.25	-0.000184224
863.49	-0.000769389
863.73	-0.000736871
863.97	-0.003240041
864.21	0.002091478
864.45	-0.001517065
864.69	0.001311206
864.93	-0.000769389
865.17	-0.002362373
865.41	-0.001484573
865.65	-0.000931926
865.89	-0.000736871
866.13	-0.001289531
866.37	-0.000606839
866.61	0.003229211
866.85	-0.000769389
867.09	-0.000151706
867.32	-0.001321983
867.56	-0.003337648
867.8	0.001311206
868.04	0.000368436
868.28	-0.002069817
868.52	-0.000866917
868.76	-0.002199783
869	0.001311206
869.24	-0.000964444
869.48	0.000238403
869.72	-0.001029454
869.96	0.000628513
870.2	-0.001257027
870.44	0.000108365
870.68	-0.00158218
870.92	0.0009536
871.16	-0.002069817
871.4	0.000596009
871.64	-0.000184224
871.88	-0.000769389
872.12	-0.001679654
872.36	0.001116151
872.6	-0.003337648
872.84	0.000758546
873.08	-0.000996949
873.32	0.000758546
873.56	-0.000996949
873.8	0.001148655
874.04	0.000108365
874.28	0.001733807
874.52	0.000270908
874.76	0.000270908
875	-0.001647163
875.24	-0.000606839
875.48	-0.000606839
875.72	0.001083646
875.96	-5.41816E-05
876.2	-0.000151706
876.44	-0.000639344
876.68	0.002286428
876.92	-0.001029454
877.16	-0.000801894
877.4	-0.000736871
877.64	-0.000671862
877.88	-0.000606839
878.12	0.002058855
878.36	0.000140876
878.6	-0.002004702
878.84	-0.000931926
879.08	-8.66917E-05
879.32	0.002449017
879.56	0.000303413
879.8	-0.000249234
880.04	0.000856073
880.28	-0.000476807
880.52	-8.66917E-05
880.76	-0.000704367
881	-0.002167292
881.24	-0.000704367
881.48	-5.41816E-05
881.72	0.000563491
881.96	-0.000671862
882.2	0.000758546
882.44	-0.000281752
882.68	-2.16729E-05
882.92	-0.001874736
883.16	0.000758546
883.4	-0.000216729
883.64	0.000270908
883.88	-0.000671862
884.12	7.58546E-05
884.36	-0.001939719
884.6	-0.000931926
884.84	-0.001257027
885.08	-2.16729E-05
885.32	-0.002947485
885.56	-0.000346761
885.8	-0.000509312
886.04	0.001083646
886.28	-0.001484573
886.52	0.001018623
886.76	0.001246183
887	-0.002264766
887.24	-0.000184224
887.48	-0.000379279
887.72	0.000465963
887.96	0.002253936
888.2	-0.0021348
888.44	0.002351543
888.68	0.000303413
888.92	0.000335931
889.16	-0.002004702
889.4	-2.16729E-05
889.64	0.00040094
889.88	0.001993872
890.12	7.58546E-05
890.36	-0.000541816
890.6	-0.000216729
890.84	0.001148655
891.08	-0.000184224
891.32	-0.0001192
891.56	-0.000379279
891.8	0.000498468
892.04	0.000108365
892.28	0.001148655
892.52	0.002253936
892.76	-0.000541816
893	-0.000444289
893.24	-0.000476807
893.48	-0.000606839
893.73	-0.000249234
893.97	-0.000606839
894.21	-2.16729E-05
894.45	-0.000931926
894.69	-0.000574334
894.93	0.000498468
895.17	-5.41816E-05
895.41	-0.000931926
895.65	-0.002004702
895.89	-0.000509312
896.13	0.000693536
896.37	-0.000899421
896.61	-0.001679654
896.85	-0.001029454
897.09	0.001701316
897.33	-0.000151706
897.57	0.001506234
897.81	-0.001517065
898.05	-5.41816E-05
898.29	-0.001061972
898.53	0.000368436
898.77	0.000856073
899.01	-0.000281752
899.25	-0.000314257
899.5	0.00040094
899.74	0.000921096
899.98	0.001668824
900.22	0.000140876
900.46	0.001181173
900.7	-0.000964444
900.94	0.000530986
901.18	-0.001354607
901.42	-0.001939719
901.66	-0.000541816
901.9	0.001311206
902.14	-0.001842244
902.38	-0.001777129
902.62	-0.001712146
902.86	-0.000379279
903.1	0.000693536
903.34	-0.001257027
903.58	0.002286428
903.82	0.0009536
904.07	-0.001224509
904.31	0.000465963
904.55	-0.000151706
904.79	-2.16729E-05
905.03	-0.000314257
905.27	-0.000769389
905.51	-0.001907227
905.75	-0.000249234
905.99	-0.002167292
906.23	0.001311206
906.47	0.00040094
906.71	0.001766299
906.95	-0.003565221
907.19	0.000530986
907.43	-0.002329882
907.68	0.002969146
907.92	-0.000671862
908.16	0.000921096
908.4	-0.002687421
908.64	0.001538726
908.88	7.58546E-05
909.12	-0.001647163
909.36	0.001018623
909.6	-0.003175058
909.84	-0.000801894
910.08	-0.0001192
910.32	-0.000281752
910.56	0.00040094
910.8	-0.002492339
911.05	-0.001842244
911.29	4.33458E-05
911.53	0.0009536
911.77	-0.002102309
912.01	-0.0021348
912.25	0.002514
912.49	0.000238403
912.73	0.001571217
912.97	0.002351543
913.21	-0.001517065
913.45	0.00040094
913.69	-0.002264766
913.93	0.000433458
914.18	-0.00158218
914.42	0.002741573
914.66	0.00179879
914.9	-0.001159499
915.14	-0.001094476
915.38	0.003001638
915.62	-0.001647163
915.86	0.000270908
916.1	-0.000411784
916.34	0.000596009
916.58	0.002481509
916.83	1.08365E-05
917.07	0.000303413
917.31	-8.66917E-05
917.55	-0.002069817
917.79	0.000921096
918.03	-0.001029454
918.27	0.000140876
918.51	-0.001061972
918.75	-0.000476807
918.99	0.000465963
919.23	0.001701316
919.48	-0.000281752
919.72	-0.001809621
919.96	-0.001939719
920.2	-0.00141959
920.44	-0.000509312
920.68	0.001148655
920.92	-0.000964444
921.16	-0.000574334
921.4	-0.001387098
921.64	0.002351543
921.89	0.000628513
922.13	0.000530986
922.37	-0.000379279
922.61	0.000238403
922.85	-0.001029454
923.09	0.001473743
923.33	-0.000476807
923.57	0.000758546
923.81	-0.001159499
924.05	-0.001679654
924.3	-0.000184224
924.54	-0.000541816
924.78	-0.000184224
925.02	-0.000834399
925.26	0.000368436
925.5	0.000661018
925.74	-0.000476807
925.98	-0.001744638
926.22	0.001083646
926.47	0.000596009
926.71	-0.002817519
926.95	-0.000736871
927.19	0.000140876
927.43	-0.000314257
927.67	-0.002037194
927.91	0.000628513
928.15	0.000108365
928.4	0.001538726
928.64	-0.002524831
928.88	0.000465963
929.12	0.000693536
929.36	-0.000996949
929.6	0.001083646
929.84	-0.001094476
930.08	-8.66917E-05
930.32	0.000596009
930.57	-0.001257027
930.81	0.000205885
931.05	-0.000834399
931.29	7.58546E-05
931.53	0.000368436
931.77	-5.41816E-05
932.01	-0.000899421
932.25	0.000335931
932.5	0.001506234
932.74	-0.000541816
932.98	0.000758546
933.22	-0.001126981
933.46	-2.16729E-05
933.7	-0.001517065
933.94	-0.000574334
934.18	0.000823568
934.43	-2.16729E-05
934.67	0.001343776
934.91	0.000888591
935.15	0.00196138
935.39	-0.000509312
935.63	-0.000151706
935.87	0.001538726
936.12	0.000791064
936.36	-0.000866917
936.6	4.33458E-05
936.84	-0.000151706
937.08	-0.001159499
937.32	0.000108365
937.56	-0.000931926
937.8	0.001603841
938.05	0.001116151
938.29	-0.001192004
938.53	-0.000541816
938.77	-8.66917E-05
939.01	0.001766299
939.25	-0.000509312
939.49	0.001083646
939.74	0.001018623
939.98	0.000888591
940.22	0.001928888
940.46	-0.002232275
940.7	-0.000606839
940.94	-0.002427356
941.18	0.001051128
941.43	0.000465963
941.67	0.000693536
941.91	0.000465963
942.15	0.001181173
942.39	0.002026363
942.63	-0.000931926
942.87	-0.001712146
943.12	0.00212397
943.36	-0.002850011
943.6	-0.000444289
943.84	0.000270908
944.08	0.00040094
944.32	-0.001744638
944.57	0.000888591
944.81	-0.000866917
945.05	0.001246183
945.29	-5.41816E-05
945.53	-0.000639344
945.77	-0.000184224
946.01	-0.001484573
946.26	-0.0001192
946.5	-0.001094476
946.74	-0.002687421
946.98	0.001083646
947.22	-0.000216729
947.46	0.001246183
947.71	-0.000639344
947.95	0.000758546
948.19	0.000140876
948.43	0.001246183
948.67	0.000498468
948.91	0.000173381
949.16	0.001766299
949.4	0.000173381
949.64	0.000205885
949.88	0.000563491
950.12	-0.000346761
950.36	-0.000444289
950.61	-0.000834399
950.85	-0.000151706
951.09	-0.001094476
951.33	-0.001192004
951.57	0.000368436
951.81	-5.41816E-05
952.06	-0.002492339
952.3	0.000433458
952.54	-0.000411784
952.78	0.002871672
953.02	0.000628513
953.26	0.000433458
953.51	-0.000476807
953.75	-0.000346761
953.99	0.000628513
954.23	-0.0001192
954.47	0.000173381
954.71	0.00196138
954.96	-0.002914994
955.2	0.00040094
955.44	0.000693536
955.68	-0.001712146
955.92	-0.002264766
956.16	-0.002557455
956.41	-0.001874736
956.65	0.000238403
956.89	-0.000346761
957.13	0.002579116
957.37	0.000661018
957.62	0.001766299
957.86	0.000661018
958.1	0.00140876
958.34	-0.001484573
958.58	-0.000184224
958.82	-0.001387098
959.07	-0.001159499
959.31	0.000238403
959.55	0.000563491
959.79	0.002026363
960.03	0.000270908
960.28	-0.002850011
960.52	-0.001452082
960.76	-0.002297258
961	0.000823568
961.24	-0.003272533
961.48	0.001018623
961.73	-0.000964444
961.97	0.001538726
962.21	-5.41816E-05
962.45	0.000433458
962.69	0.001311206
962.94	-0.000476807
963.18	0.001928888
963.42	0.000108365
963.66	-0.000314257
963.9	0.001116151
964.15	-0.000541816
964.39	-0.001029454
964.63	0.000433458
964.87	0.000628513
965.11	-0.002914994
965.36	-0.001257027
965.6	-0.000379279
965.84	0.000108365
966.08	0.000140876
966.32	0.000726041
966.57	0.001278701
966.81	0.000791064
967.05	-0.001614671
967.29	0.002058855
967.53	-0.001126981
967.77	0.000498468
968.02	0.000693536
968.26	0.000921096
968.5	0.001506234
968.74	-0.001126981
968.99	-0.001224509
969.23	0.001766299
969.47	-0.001647163
969.71	0.002384034
969.95	-0.000736871
970.2	0.000661018
970.44	-0.001289531
970.68	0.0009536
970.92	-0.000346761
971.16	-2.16729E-05
971.41	0.000140876
971.65	0.000108365
971.89	-0.001712146
972.13	-0.001647163
972.37	-0.001257027
972.62	0.000270908
972.86	-0.000801894
973.1	-0.000346761
973.34	-0.001224509
973.58	0.000173381
973.83	0.000368436
974.07	-0.000346761
974.31	0.000888591
974.55	0.00179879
974.8	0.000140876
975.04	0.000108365
975.28	-0.00197221
975.52	-2.16729E-05
975.76	-5.41816E-05
976.01	-0.001387098
976.25	-0.001321983
976.49	-0.000249234
976.73	0.003229211
976.97	0.000270908
977.22	-0.00141959
977.46	-0.000639344
977.7	0.0009536
977.94	0.001213678
978.19	0.00040094
978.43	0.002058855
978.67	-0.002199783
978.91	7.58546E-05
979.15	-0.000801894
979.4	-0.000216729
979.64	-0.000671862
979.88	0.001051128
980.12	0.001213678
980.37	0.001181173
980.61	0.001376268
980.85	-0.000606839
981.09	-0.000541816
981.33	-0.000151706
981.58	0.001766299
981.82	-0.000444289
982.06	-0.000639344
982.3	0.000596009
982.55	0.000693536
982.79	0.002416526
983.03	-0.000249234
983.27	-0.000476807
983.52	0.00040094
983.76	0.002221444
984	-0.000931926
984.24	7.58546E-05
984.48	-0.000704367
984.73	-0.000899421
984.97	-0.000996949
985.21	-0.000216729
985.45	-0.001517065
985.7	-0.000379279
985.94	-0.000606839
986.18	-0.000411784
986.42	-0.001939719
986.67	-2.16729E-05
986.91	-0.000704367
987.15	-0.000476807
987.39	-0.002362373
987.63	0.000856073
987.88	0.000303413
988.12	0.002188953
988.36	-0.000574334
988.6	0.00212397
988.85	0.002384034
989.09	0.000856073
989.33	-0.000801894
989.57	0.002644099
989.82	0.000173381
990.06	0.00267659
990.3	-0.000281752
990.54	0.001896397
990.79	-0.00158218
991.03	0.001278701
991.27	-0.000216729
991.51	0.000433458
991.76	-0.000834399
992	0.000856073
992.24	0.001246183
992.48	0.001538726
992.73	-0.000639344
992.97	0.001603841
993.21	-0.001517065
993.45	0.001668824
993.7	-0.000444289
993.94	4.33458E-05
994.18	-0.000996949
994.42	0.000596009
994.67	-0.001647163
994.91	0.001473743
995.15	-0.002232275
995.39	0.001896397
995.64	-0.000249234
995.88	0.00196138
996.12	4.33458E-05
996.36	-0.000606839
996.61	4.33458E-05
996.85	-0.001159499
997.09	0.001928888
997.33	-0.000639344
997.58	-0.000801894
997.82	-0.000769389
998.06	-0.001842244
998.3	-0.000639344
998.55	0.000303413
998.79	-0.001354607
999.03	-0.000801894
999.27	-0.002004702
999.52	0.002221444
999.76	-0.000606839
1000	-0.000151706
1000.2	0.001668824
1000.5	0.002709082
1000.7	0.000693536
1001	0.001148655
1001.2	-0.000834399
1001.5	0.000758546
1001.7	-0.00141959
1001.9	0.003131736
1002.2	0.000238403
1002.4	0.001148655
1002.7	0.00040094
1002.9	-0.000509312
1003.2	-0.000541816
1003.4	0.001213678
1003.6	-0.001777129
1003.9	0.000368436
1004.1	-0.001874736
1004.4	0.000726041
1004.6	0.002286428
1004.9	0.001376268
1005.1	-0.001354607
1005.3	0.002384034
1005.6	-0.000509312
1005.8	1.08365E-05
1006.1	1.08365E-05
1006.3	0.00196138
1006.6	-0.003012468
1006.8	0.000791064
1007	-0.00197221
1007.3	0.001831414
1007.5	-0.000509312
1007.8	0.001603841
1008	0.000140876
1008.3	-0.000996949
1008.5	-0.000346761
1008.7	0.001051128
1009	0.000433458
1009.2	0.001766299
1009.5	0.000563491
1009.7	0.000368436
1010	-0.00141959
1010.2	0.001213678
1010.4	0.00040094
1010.7	0.002384034
1010.9	-0.00141959
1011.2	0.002351543
1011.4	0.000530986
1011.7	-0.000899421
1011.9	-0.000704367
1012.1	0.000693536
1012.4	-5.41816E-05
1012.6	-0.000314257
1012.9	-0.001452082
1013.1	0.000108365
1013.4	0.00040094
1013.6	0.000791064
1013.8	-0.000801894
1014.1	0.00040094
1014.3	-0.000639344
1014.6	0.002253936
1014.8	-0.002362373
1015.1	-0.000216729
1015.3	0.001278701
1015.5	0.002806689
1015.8	0.000205885
1016	0.000596009
1016.3	-0.000281752
1016.5	0.000238403
1016.8	-0.001777129
1017	0.00196138
1017.2	-0.001387098
1017.5	0.001343776
1017.7	-0.000964444
1018	0.002319051
1018.2	-0.00158218
1018.5	0.001246183
1018.7	0.000791064
1018.9	0.001928888
1019.2	-0.000931926
1019.4	-0.000411784
1019.7	-0.001712146
1019.9	-0.001939719
1020.2	-0.001094476
1020.4	0.00267659
1020.6	-0.003402631
1020.9	-0.002329882
1021.1	-0.000476807
1021.4	-0.001842244
1021.6	-0.002557455
1021.9	-0.002492339